Frequency(MHz),Power(dBmV/100kHz)_20260202_204320
107.8981,-18.53
107.9981,-17.4
108.0981,-11.0
108.1981,-6.39
108.2981,-2.44
108.3981,0.01
108.4981,2.36
108.5981,2.08
108.6981,1.51
108.7981,1.23
108.8981,1.7
108.9981,0.85
109.0981,0.76
109.1981,-0.65
109.2981,-0.65
109.3981,-3.19
109.4981,-3.01
109.5981,-1.97
109.6981,-0.93
109.7981,0.38
109.8981,1.79
109.9981,1.61
110.0981,1.32
110.1981,1.79
110.2981,2.08
110.3981,0.48
110.4981,0.57
110.5981,-0.37
110.6981,-0.75
110.7981,-2.63
110.8981,-2.63
110.9981,-0.84
111.0981,-0.37
111.1981,0.67
111.2981,0.19
111.3981,0.57
111.4981,-0.75
111.5981,1.32
111.6981,1.7
111.7981,2.17
111.8981,3.11
111.9981,2.83
112.0981,2.74
112.1981,0.29
112.2981,-0.75
112.3981,-1.31
112.4981,-1.41
112.5981,-1.31
112.6981,0.29
112.7981,1.79
112.8981,1.51
112.9981,1.61
113.0981,2.27
113.1981,2.92
113.2981,3.87
113.3981,2.92
113.4981,1.98
113.5981,-1.12
113.6981,-3.66
113.7981,-7.05
113.8981,-14.49
113.9981,-18.53
114.0981,-19.95
114.1981,-21.17
114.2981,-22.86
114.3981,-23.05
114.4981,-22.77
114.5981,-22.3
114.6981,-21.83
114.7981,-21.64
114.8981,-24.93
114.9981,-25.5
115.0981,-25.59
115.1981,-25.59
115.2981,-25.59
115.3981,-25.69
115.4981,-26.06
115.5981,-26.72
115.6981,-27.66
115.7981,-27.76
115.8981,-26.82
115.9981,-25.88
116.0981,-24.93
116.1981,-24.46
116.2981,-24.37
116.3981,-24.28
116.4981,-24.56
116.5981,-24.75
116.6981,-24.56
116.7981,-24.46
116.8981,-24.56
116.9981,-25.03
117.0981,-25.78
117.1981,-26.82
117.2981,-27.66
117.3981,-27.66
117.4981,-27.1
117.5981,-26.35
117.6981,-26.25
117.7981,-26.16
117.8981,-26.35
117.9981,-26.44
118.0981,-26.25
118.1981,-25.69
118.2981,-25.12
118.3981,-24.84
118.4981,-24.84
118.5981,-25.22
118.6981,-25.78
118.7981,-26.63
118.8981,-26.35
118.9981,-24.18
119.0981,-23.62
119.1981,-23.05
119.2981,-22.11
119.3981,-21.17
119.4981,-20.32
119.5981,-19.76
119.6981,-17.69
119.7981,-16.84
119.8981,-15.43
119.9981,-11.85
120.0981,-6.02
120.1981,-2.72
120.2981,-1.22
120.3981,-0.37
120.4981,-0.37
120.5981,-0.65
120.6981,-0.46
120.7981,0.29
120.8981,0.57
120.9981,0.57
121.0981,1.23
121.1981,1.98
121.2981,1.98
121.3981,2.08
121.4981,2.74
121.5981,3.39
121.6981,4.15
121.7981,2.83
121.8981,1.89
121.9981,0.67
122.0981,-1.31
122.1981,-3.85
122.2981,-4.42
122.3981,-3.57
122.4981,-2.35
122.5981,0.48
122.6981,0.57
122.7981,1.23
122.8981,1.7
122.9981,1.98
123.0981,1.79
123.1981,0.95
123.2981,0.67
123.3981,1.14
123.4981,0.67
123.5981,0.1
123.6981,-0.18
123.7981,-1.41
123.8981,-0.75
123.9981,-1.41
124.0981,-0.37
124.1981,1.04
124.2981,1.04
124.3981,1.79
124.4981,2.83
124.5981,3.02
124.6981,2.17
124.7981,3.11
124.8981,1.98
124.9981,1.32
125.0981,1.04
125.1981,0.85
125.2981,-1.12
125.3981,-2.72
125.4981,-3.85
125.5981,-5.55
125.6981,-7.24
125.7981,-9.03
125.8981,-12.32
125.9981,-8.09
126.0981,-4.42
126.1981,-1.69
126.2981,-0.65
126.3981,0.48
126.4981,0.1
126.5981,0.1
126.6981,-0.09
126.7981,-1.59
126.8981,-2.06
126.9981,-1.41
127.0981,-1.78
127.1981,-1.03
127.2981,-1.22
127.3981,-0.56
127.4981,-0.65
127.5981,0.01
127.6981,0.57
127.7981,1.23
127.8981,1.61
127.9981,1.32
128.0981,0.67
128.1981,-0.28
128.2981,-1.03
128.3981,-1.31
128.4981,-1.59
128.5981,-0.75
128.6981,-1.03
128.7981,-0.37
128.8981,-0.84
128.9981,-0.09
129.0981,0.95
129.1981,1.7
129.2981,2.74
129.3981,2.74
129.4981,3.02
129.5981,0.67
129.6981,-0.09
129.7981,0.19
129.8981,0.38
129.9981,1.23
130.0981,-0.18
130.1981,0.57
130.2981,-0.46
130.3981,-1.41
130.4981,-1.78
130.5981,-1.97
130.6981,-1.97
130.7981,-0.37
130.8981,-0.18
130.9981,0.01
131.0981,0.76
131.1981,0.57
131.2981,0.01
131.3981,0.19
131.4981,-1.78
131.5981,-3.76
131.6981,-7.24
131.7981,-10.91
131.8981,-11.85
131.9981,-10.72
132.0981,-9.5
132.1981,-8.18
132.2981,-6.86
132.3981,-5.73
132.4981,-4.32
132.5981,-2.44
132.6981,-0.46
132.7981,1.98
132.8981,4.71
132.9981,9.14
133.0981,21.75
133.1981,13.94
133.2981,4.99
133.3981,1.14
133.4981,-1.59
133.5981,-3.57
133.6981,-5.83
133.7981,-7.8
133.8981,-9.59
133.9981,-10.16
134.0981,-9.88
134.1981,-9.5
134.2981,-9.31
134.3981,-9.69
134.4981,-10.35
134.5981,-11.38
134.6981,-12.7
134.7981,-14.11
134.8981,-15.33
134.9981,-16.46
135.0981,-17.4
135.1981,-18.16
135.2981,-18.72
135.3981,-18.53
135.4981,-17.97
135.5981,-17.12
135.6981,-16.28
135.7981,-15.99
135.8981,-16.46
135.9981,-16.56
136.0981,-16.84
136.1981,-17.5
136.2981,-18.63
136.3981,-19.38
136.4981,-20.23
136.5981,-20.7
136.6981,-21.08
136.7981,-21.08
136.8981,-20.79
136.9981,-20.51
137.0981,-19.85
137.1981,-19.1
137.2981,-18.44
137.3981,-17.59
137.4981,-16.46
137.5981,-15.24
137.6981,-14.3
137.7981,-10.35
137.8981,-9.59
137.9981,-6.49
138.0981,-4.89
138.1981,-3.38
138.2981,-4.13
138.3981,-3.01
138.4981,-1.69
138.5981,-1.78
138.6981,-1.31
138.7981,-0.37
138.8981,-0.37
138.9981,-0.46
139.0981,-0.37
139.1981,-0.46
139.2981,-0.09
139.3981,-0.09
139.4981,-0.93
139.5981,-1.41
139.6981,-3.66
139.7981,-3.29
139.8981,-3.01
139.9981,-3.29
140.0981,-2.06
140.1981,-0.46
140.2981,-0.93
140.3981,-0.28
140.4981,-0.28
140.5981,0.19
140.6981,0.76
140.7981,0.95
140.8981,1.23
140.9981,1.51
141.0981,-0.37
141.1981,-0.65
141.2981,-1.03
141.3981,-2.16
141.4981,-2.72
141.5981,-2.91
141.6981,-1.78
141.7981,-1.41
141.8981,-0.56
141.9981,1.04
142.0981,0.29
142.1981,0.29
142.2981,1.23
142.3981,-0.09
142.4981,-0.18
142.5981,0.38
142.6981,0.19
142.7981,-0.28
142.8981,-0.56
142.9981,-1.22
143.0981,-1.12
143.1981,-0.46
143.2981,-1.78
143.3981,-2.35
143.4981,-3.76
143.5981,-6.02
143.6981,-9.31
143.7981,-12.6
143.8981,-9.69
143.9981,-4.7
144.0981,-2.44
144.1981,-1.12
144.2981,-0.46
144.3981,-0.09
144.4981,0.29
144.5981,-0.56
144.6981,-1.5
144.7981,-3.19
144.8981,-3.48
144.9981,-1.78
145.0981,-1.12
145.1981,-0.28
145.2981,-0.18
145.3981,0.67
145.4981,-0.37
145.5981,-0.18
145.6981,-0.46
145.7981,0.48
145.8981,2.55
145.9981,2.17
146.0981,1.42
146.1981,0.67
146.2981,-0.75
146.3981,-1.78
146.4981,-2.82
146.5981,-2.06
146.6981,-2.35
146.7981,-1.22
146.8981,-0.93
146.9981,-0.28
147.0981,-0.84
147.1981,-1.59
147.2981,-0.09
147.3981,0.85
147.4981,0.38
147.5981,0.19
147.6981,-0.93
147.7981,-0.65
147.8981,-3.19
147.9981,-3.57
148.0981,-3.19
148.1981,-1.88
148.2981,-1.31
148.3981,-0.84
148.4981,-1.78
148.5981,0.48
148.6981,0.95
148.7981,0.38
148.8981,1.7
148.9981,0.95
149.0981,0.19
149.1981,0.38
149.2981,-0.18
149.3981,-2.63
149.4981,-5.83
149.5981,-8.65
149.6981,-13.92
149.7981,-17.31
149.8981,-12.7
149.9981,-7.99
150.0981,-3.76
150.1981,-0.56
150.2981,0.38
150.3981,1.61
150.4981,0.95
150.5981,0.85
150.6981,-0.09
150.7981,-0.46
150.8981,-1.12
150.9981,-1.03
151.0981,-1.97
151.1981,-2.63
151.2981,-4.04
151.3981,-3.19
151.4981,-2.16
151.5981,-0.84
151.6981,0.76
151.7981,1.14
151.8981,1.14
151.9981,0.1
152.0981,0.29
152.1981,-0.18
152.2981,0.38
152.3981,-0.65
152.4981,-0.18
152.5981,0.01
152.6981,-2.91
152.7981,-2.16
152.8981,-3.57
152.9981,-2.72
153.0981,-3.1
153.1981,-1.88
153.2981,-1.03
153.3981,-0.56
153.4981,0.1
153.5981,0.19
153.6981,0.76
153.7981,-0.75
153.8981,0.85
153.9981,0.19
154.0981,-1.59
154.1981,-0.84
154.2981,-1.78
154.3981,-2.82
154.4981,-2.63
154.5981,-2.16
154.6981,-1.88
154.7981,-1.97
154.8981,-1.5
154.9981,-1.03
155.0981,-0.37
155.1981,-0.37
155.2981,0.01
155.3981,-1.69
155.4981,-5.08
155.5981,-7.99
155.6981,-13.36
155.7981,-14.02
155.8981,-9.31
155.9981,-5.36
156.0981,-3.76
156.1981,-3.01
156.2981,-1.59
156.3981,-1.41
156.4981,-2.44
156.5981,-1.03
156.6981,0.19
156.7981,-0.09
156.8981,0.38
156.9981,1.04
157.0981,0.85
157.1981,1.04
157.2981,-0.65
157.3981,-1.12
157.4981,-1.69
157.5981,-1.5
157.6981,-2.53
157.7981,-2.72
157.8981,-3.19
157.9981,-3.38
158.0981,-3.48
158.1981,-2.72
158.2981,-1.69
158.3981,-0.84
158.4981,-0.93
158.5981,-0.18
158.6981,-0.28
158.7981,-0.46
158.8981,0.95
158.9981,-1.12
159.0981,-0.56
159.1981,-1.59
159.2981,-1.97
159.3981,-2.44
159.4981,-3.76
159.5981,-3.76
159.6981,-1.97
159.7981,-1.22
159.8981,-0.09
159.9981,0.76
160.0981,1.32
160.1981,1.32
160.2981,1.04
160.3981,1.14
160.4981,0.48
160.5981,-0.37
160.6981,-0.75
160.7981,-1.59
160.8981,-2.53
160.9981,-2.53
161.0981,-3.48
161.1981,-3.95
161.2981,-2.35
161.3981,-4.42
161.4981,-6.58
161.5981,-10.16
161.6981,-14.11
161.7981,-12.23
161.8981,-6.77
161.9981,-3.48
162.0981,-1.59
162.1981,-0.56
162.2981,-1.41
162.3981,-2.44
162.4981,-3.57
162.5981,-4.98
162.6981,-3.66
162.7981,-3.57
162.8981,-2.53
162.9981,-1.97
163.0981,-0.65
163.1981,0.19
163.2981,0.95
163.3981,1.42
163.4981,0.76
163.5981,0.38
163.6981,0.38
163.7981,-2.35
163.8981,-4.04
163.9981,-3.85
164.0981,-2.63
164.1981,-1.78
164.2981,-1.41
164.3981,-2.82
164.4981,-1.88
164.5981,-0.84
164.6981,-0.56
164.7981,0.19
164.8981,1.51
164.9981,1.7
165.0981,1.14
165.1981,0.76
165.2981,0.57
165.3981,-0.84
165.4981,-0.75
165.5981,-1.78
165.6981,-3.19
165.7981,-3.29
165.8981,-3.01
165.9981,-3.19
166.0981,-2.72
166.1981,-2.91
166.2981,-2.72
166.3981,-2.44
166.4981,-1.22
166.5981,-1.41
166.6981,-1.59
166.7981,-1.22
166.8981,-1.88
166.9981,-1.31
167.0981,-2.35
167.1981,-5.45
167.2981,-6.2
167.3981,-7.9
167.4981,-9.4
167.5981,-12.13
167.6981,-14.68
167.7981,-10.06
167.8981,-4.89
167.9981,-3.29
168.0981,-1.78
168.1981,0.19
168.2981,0.95
168.3981,0.76
168.4981,1.51
168.5981,1.32
168.6981,0.01
168.7981,-1.88
168.8981,-2.25
168.9981,-2.53
169.0981,-2.63
169.1981,-2.35
169.2981,-2.35
169.3981,-2.44
169.4981,-2.35
169.5981,-1.69
169.6981,-0.46
169.7981,-1.31
169.8981,0.01
169.9981,-0.46
170.0981,-0.93
170.1981,-1.5
170.2981,-2.72
170.3981,-3.95
170.4981,-3.66
170.5981,-4.51
170.6981,-4.32
170.7981,-3.57
170.8981,-3.38
170.9981,-2.53
171.0981,-1.31
171.1981,-1.22
171.2981,-1.12
171.3981,-0.75
171.4981,-0.56
171.5981,-0.65
171.6981,-0.28
171.7981,-0.93
171.8981,-1.5
171.9981,-2.35
172.0981,-2.63
172.1981,-2.72
172.2981,-3.01
172.3981,-3.38
172.4981,-3.01
172.5981,-1.5
172.6981,-0.09
172.7981,-0.75
172.8981,0.19
172.9981,1.14
173.0981,0.38
173.1981,0.57
173.2981,-0.93
173.3981,-3.57
173.4981,-6.58
173.5981,-12.6
173.6981,-13.73
173.7981,-11.0
173.8981,-9.12
173.9981,-8.93
174.0981,-6.3
174.1981,-3.85
174.2981,-3.85
174.3981,-2.44
174.4981,-1.69
174.5981,-2.16
174.6981,-2.25
174.7981,-2.53
174.8981,-2.63
174.9981,-1.69
175.0981,-2.63
175.1981,-3.01
175.2981,-3.48
175.3981,-4.89
175.4981,-6.2
175.5981,-6.02
175.6981,-4.7
175.7981,-3.1
175.8981,0.1
175.9981,0.38
176.0981,0.95
176.1981,0.95
176.2981,0.01
176.3981,1.04
176.4981,1.79
176.5981,0.38
176.6981,-0.37
176.7981,-1.78
176.8981,-1.5
176.9981,-2.91
177.0981,-3.66
177.1981,-3.76
177.2981,-3.48
177.3981,-2.82
177.4981,-2.16
177.5981,-1.59
177.6981,-1.97
177.7981,-2.35
177.8981,-0.93
177.9981,-1.03
178.0981,-0.84
178.1981,-0.84
178.2981,-1.59
178.3981,-2.35
178.4981,-3.1
178.5981,-5.73
178.6981,-6.58
178.7981,-7.15
178.8981,-6.11
178.9981,-5.73
179.0981,-3.19
179.1981,-2.72
179.2981,-3.95
179.3981,-7.15
179.4981,-8.75
179.5981,-13.73
179.6981,-13.17
179.7981,-9.4
179.8981,-7.33
179.9981,-4.6
180.0981,-3.19
180.1981,-3.1
180.2981,-2.63
180.3981,-3.66
180.4981,-4.42
180.5981,-2.91
180.6981,-1.5
180.7981,-0.84
180.8981,-0.46
180.9981,0.29
181.0981,-0.65
181.1981,0.48
181.2981,-0.46
181.3981,-1.12
181.4981,-1.22
181.5981,-1.22
181.6981,-1.03
181.7981,-1.41
181.8981,-2.53
181.9981,-2.72
182.0981,-4.32
182.1981,-4.6
182.2981,-4.51
182.3981,-3.57
182.4981,-3.48
182.5981,-4.32
182.6981,-3.1
182.7981,-3.57
182.8981,-2.72
182.9981,-2.25
183.0981,-2.91
183.1981,-4.79
183.2981,-5.64
183.3981,-6.96
183.4981,-7.05
183.5981,-6.96
183.6981,-5.92
183.7981,-4.89
183.8981,-3.48
183.9981,-2.16
184.0981,-2.06
184.1981,-1.31
184.2981,-0.28
184.3981,0.1
184.4981,-0.18
184.5981,-0.37
184.6981,-0.75
184.7981,-0.75
184.8981,-1.88
184.9981,-1.97
185.0981,-2.72
185.1981,-4.13
185.2981,-6.02
185.3981,-8.75
185.4981,-13.92
185.5981,-17.03
185.6981,-12.79
185.7981,-7.8
185.8981,-3.76
185.9981,-1.69
186.0981,-1.03
186.1981,-2.35
186.2981,-2.16
186.3981,-3.1
186.4981,-3.85
186.5981,-4.13
186.6981,-4.98
186.7981,-6.11
186.8981,-6.86
186.9981,-8.46
187.0981,-7.43
187.1981,-4.7
187.2981,-3.57
187.3981,-1.78
187.4981,-1.5
187.5981,-1.97
187.6981,-1.31
187.7981,-2.44
187.8981,-2.44
187.9981,-3.48
188.0981,-4.42
188.1981,-5.64
188.2981,-5.73
188.3981,-6.02
188.4981,-6.58
188.5981,-4.32
188.6981,-3.57
188.7981,-2.91
188.8981,-1.59
188.9981,-0.75
189.0981,-0.09
189.1981,0.01
189.2981,-0.28
189.3981,-0.65
189.4981,-1.31
189.5981,-1.69
189.6981,-1.78
189.7981,-2.72
189.8981,-3.95
189.9981,-4.51
190.0981,-3.76
190.1981,-4.51
190.2981,-4.89
190.3981,-4.32
190.4981,-3.38
190.5981,-2.91
190.6981,-3.1
190.7981,-2.44
190.8981,-2.16
190.9981,-3.66
191.0981,-4.7
191.1981,-7.05
191.2981,-10.53
191.3981,-14.86
191.4981,-22.96
191.5981,-23.99
191.6981,-17.88
191.7981,-12.79
191.8981,-9.31
191.9981,-6.68
192.0981,-3.95
192.1981,-3.57
192.2981,-2.35
192.3981,-0.93
192.4981,0.29
192.5981,-0.75
192.6981,-1.03
192.7981,-1.12
192.8981,-2.91
192.9981,-3.01
193.0981,-3.76
193.1981,-4.42
193.2981,-4.32
193.3981,-2.82
193.4981,-1.31
193.5981,-3.19
193.6981,-3.38
193.7981,-2.72
193.8981,-2.53
193.9981,-2.91
194.0981,-2.25
194.1981,-2.35
194.2981,-1.22
194.3981,-2.82
194.4981,-4.23
194.5981,-6.02
194.6981,-7.15
194.7981,-8.18
194.8981,-9.22
194.9981,-7.99
195.0981,-8.18
195.1981,-7.9
195.2981,-7.05
195.3981,-5.26
195.4981,-4.7
195.5981,-4.89
195.6981,-4.98
195.7981,-4.23
195.8981,-4.32
195.9981,-4.51
196.0981,-4.6
196.1981,-4.6
196.2981,-6.58
196.3981,-7.99
196.4981,-9.69
196.5981,-9.59
196.6981,-7.24
196.7981,-5.26
196.8981,-3.76
196.9981,-3.57
197.0981,-3.57
197.1981,-4.79
197.2981,-7.24
197.3981,-9.78
197.4981,-13.92
197.5981,-11.95
197.6981,-8.56
197.7981,-5.73
197.8981,-5.08
197.9981,-6.3
198.0981,-6.68
198.1981,-4.89
198.2981,-4.23
198.3981,-3.48
198.4981,-4.13
198.5981,-4.6
198.6981,-4.79
198.7981,-4.7
198.8981,-4.04
198.9981,-3.19
199.0981,-3.19
199.1981,-3.38
199.2981,-3.85
199.3981,-5.92
199.4981,-8.93
199.5981,-11.95
199.6981,-17.5
199.7981,-17.03
199.8981,-14.02
199.9981,-9.97
200.0981,-7.52
200.1981,-5.73
200.2981,-4.51
200.3981,-4.32
200.4981,-3.1
200.5981,-3.29
200.6981,-2.91
200.7981,-3.1
200.8981,-2.53
200.9981,-4.32
201.0981,-4.6
201.1981,-4.7
201.2981,-5.64
201.3981,-6.3
201.4981,-7.15
201.5981,-7.05
201.6981,-5.55
201.7981,-3.66
201.8981,-3.19
201.9981,-3.1
202.0981,-2.44
202.1981,-2.44
202.2981,-3.1
202.3981,-2.82
202.4981,-2.82
202.5981,-5.08
202.6981,-4.7
202.7981,-6.86
202.8981,-10.25
202.9981,-16.37
203.0981,-15.9
203.1981,-12.98
203.2981,-14.02
203.3981,-15.99
203.4981,-19.0
203.5981,-14.96
203.6981,-10.82
203.7981,-8.75
203.8981,-6.77
203.9981,-6.02
204.0981,-6.2
204.1981,-6.86
204.2981,-9.22
204.3981,-10.91
204.4981,-12.04
204.5981,-13.26
204.6981,-11.57
204.7981,-9.31
204.8981,-6.96
204.9981,-6.96
205.0981,-3.95
205.1981,-3.66
205.2981,-4.42
205.3981,-3.19
205.4981,-3.48
205.5981,-3.38
205.6981,-4.51
205.7981,-4.51
205.8981,-4.89
205.9981,-6.58
206.0981,-7.62
206.1981,-8.37
206.2981,-7.71
206.3981,-6.86
206.4981,-5.92
206.5981,-4.7
206.6981,-3.48
206.7981,-2.82
206.8981,-3.57
206.9981,-4.13
207.0981,-5.17
207.1981,-5.83
207.2981,-6.68
207.3981,-7.24
207.4981,-8.56
207.5981,-9.59
207.6981,-11.66
207.7981,-14.49
207.8981,-21.83
207.9981,-23.43
208.0981,-15.62
208.1981,-11.48
208.2981,-8.09
208.3981,-5.92
208.4981,-6.11
208.5981,-5.17
208.6981,-5.17
208.7981,-5.55
208.8981,-5.92
208.9981,-7.52
209.0981,-8.75
209.1981,-10.44
209.2981,-12.51
209.3981,-18.63
209.4981,-20.7
209.5981,-15.8
209.6981,-13.08
209.7981,-9.12
209.8981,-6.77
209.9981,-4.6
210.0981,-4.23
210.1981,-4.42
210.2981,-3.95
210.3981,-4.79
210.4981,-4.42
210.5981,-5.26
210.6981,-5.45
210.7981,-6.96
210.8981,-8.18
210.9981,-9.88
211.0981,-13.45
211.1981,-18.06
211.2981,-18.16
211.3981,-13.26
211.4981,-9.78
211.5981,-7.43
211.6981,-6.68
211.7981,-7.62
211.8981,-6.86
211.9981,-7.15
212.0981,-6.3
212.1981,-7.9
212.2981,-8.65
212.3981,-11.1
212.4981,-14.39
212.5981,-20.04
212.6981,-24.37
212.7981,-16.75
212.8981,-13.17
212.9981,-10.63
213.0981,-8.65
213.1981,-6.68
213.2981,-6.3
213.3981,-5.36
213.4981,-5.64
213.5981,-5.64
213.6981,-6.49
213.7981,-7.15
213.8981,-9.22
213.9981,-9.97
214.0981,-9.12
214.1981,-9.03
214.2981,-9.22
214.3981,-7.71
214.4981,-8.28
214.5981,-9.4
214.6981,-7.71
214.7981,-6.49
214.8981,-4.79
214.9981,-4.89
215.0981,-5.45
215.1981,-7.99
215.2981,-12.51
215.3981,-17.97
215.4981,-18.91
215.5981,-15.8
215.6981,-16.46
215.7981,-18.72
215.8981,-21.92
215.9981,-27.95
216.0981,-19.48
216.1981,-13.73
216.2981,-10.53
216.3981,-8.09
216.4981,-7.43
216.5981,-7.24
216.6981,-8.28
216.7981,-9.59
216.8981,-10.63
216.9981,-11.29
217.0981,-13.08
217.1981,-11.29
217.2981,-12.23
217.3981,-12.04
217.4981,-11.38
217.5981,-11.85
217.6981,-10.63
217.7981,-8.18
217.8981,-6.58
217.9981,-5.83
218.0981,-5.55
218.1981,-5.45
218.2981,-5.64
218.3981,-5.45
218.4981,-5.55
218.5981,-6.2
218.6981,-8.18
218.7981,-10.25
218.8981,-12.98
218.9981,-20.79
219.0981,-26.25
219.1981,-17.12
219.2981,-14.2
219.3981,-12.42
219.4981,-12.89
219.5981,-12.51
219.6981,-11.38
219.7981,-10.25
219.8981,-9.5
219.9981,-8.65
220.0981,-9.03
220.1981,-9.88
220.2981,-10.63
220.3981,-13.64
220.4981,-17.22
220.5981,-19.19
220.6981,-21.64
220.7981,-22.77
220.8981,-22.3
220.9981,-20.04
221.0981,-17.78
221.1981,-16.84
221.2981,-18.91
221.3981,-21.26
221.4981,-17.22
221.5981,-13.73
221.6981,-11.66
221.7981,-11.66
221.8981,-12.32
221.9981,-14.11
222.0981,-17.31
222.1981,-16.75
222.2981,-13.45
222.3981,-11.76
222.4981,-9.78
222.5981,-9.03
222.6981,-7.8
222.7981,-7.62
222.8981,-7.52
222.9981,-6.68
223.0981,-6.11
223.1981,-6.68
223.2981,-6.58
223.3981,-6.49
223.4981,-7.43
223.5981,-7.8
223.6981,-8.65
223.7981,-10.72
223.8981,-13.26
223.9981,-16.28
224.0981,-19.48
224.1981,-17.31
224.2981,-14.77
224.3981,-13.45
224.4981,-12.04
224.5981,-10.63
224.6981,-10.63
224.7981,-9.78
224.8981,-9.5
224.9981,-10.82
225.0981,-12.7
225.1981,-15.52
225.2981,-20.7
225.3981,-21.17
225.4981,-15.62
225.5981,-13.73
225.6981,-10.91
225.7981,-9.88
225.8981,-8.37
225.9981,-7.8
226.0981,-6.96
226.1981,-7.05
226.2981,-7.15
226.3981,-6.68
226.4981,-7.62
226.5981,-7.43
226.6981,-8.09
226.7981,-9.69
226.8981,-12.7
226.9981,-16.93
227.0981,-24.56
227.1981,-28.51
227.2981,-28.23
227.3981,-27.0
227.4981,-20.04
227.5981,-15.15
227.6981,-13.64
227.7981,-11.76
227.8981,-9.31
227.9981,-9.69
228.0981,-9.4
228.1981,-8.56
228.2981,-10.72
228.3981,-12.04
228.4981,-14.3
228.5981,-19.66
228.6981,-25.69
228.7981,-20.7
228.8981,-15.15
228.9981,-13.92
229.0981,-13.36
229.1981,-12.42
229.2981,-12.7
229.3981,-13.64
229.4981,-12.89
229.5981,-12.23
229.6981,-12.98
229.7981,-13.83
229.8981,-16.09
229.9981,-18.82
230.0981,-21.45
230.1981,-23.15
230.2981,-20.89
230.3981,-17.5
230.4981,-14.58
230.5981,-12.98
230.6981,-9.4
230.7981,-7.05
230.8981,-6.77
230.9981,-6.11
231.0981,-5.83
231.1981,-6.39
231.2981,-7.62
231.3981,-9.59
231.4981,-11.1
231.5981,-12.13
231.6981,-14.02
231.7981,-15.62
231.8981,-18.25
231.9981,-20.79
232.0981,-19.0
232.1981,-15.9
232.2981,-13.17
232.3981,-13.55
232.4981,-14.02
232.5981,-16.28
232.6981,-18.44
232.7981,-19.0
232.8981,-16.75
232.9981,-15.33
233.0981,-16.93
233.1981,-20.6
233.2981,-25.97
233.3981,-28.7
233.4981,-28.32
233.5981,-21.92
233.6981,-15.52
233.7981,-11.76
233.8981,-9.78
233.9981,-8.09
234.0981,-7.52
234.1981,-7.15
234.2981,-7.33
234.3981,-7.71
234.4981,-7.8
234.5981,-7.99
234.6981,-9.88
234.7981,-11.57
234.8981,-13.92
234.9981,-18.06
235.0981,-20.79
235.1981,-19.66
235.2981,-16.75
235.3981,-14.58
235.4981,-13.45
235.5981,-13.36
235.6981,-10.82
235.7981,-11.29
235.8981,-9.97
235.9981,-10.72
236.0981,-12.42
236.1981,-13.83
236.2981,-14.58
236.3981,-16.37
236.4981,-17.5
236.5981,-19.1
236.6981,-23.05
236.7981,-30.58
236.8981,-25.97
236.9981,-18.06
237.0981,-12.98
237.1981,-11.29
237.2981,-9.4
237.3981,-8.75
237.4981,-9.22
237.5981,-10.44
237.6981,-12.51
237.7981,-16.93
237.8981,-23.71
237.9981,-40.56
238.0981,-23.33
238.1981,-18.44
238.2981,-16.28
238.3981,-13.92
238.4981,-11.66
238.5981,-10.16
238.6981,-10.06
238.7981,-8.18
238.8981,-9.4
238.9981,-10.06
239.0981,-13.17
239.1981,-17.12
239.2981,-21.64
239.3981,-18.63
239.4981,-14.39
239.5981,-13.26
239.6981,-14.02
239.7981,-14.02
239.8981,-17.12
239.9981,-20.04
240.0981,-18.91
240.1981,-14.49
240.2981,-11.48
240.3981,-10.06
240.4981,-10.06
