Frequency(MHz),Power(dBmV/100kHz)_20260203_093443
107.8981,-17.63
107.9981,-16.03
108.0981,-10.1
108.1981,-5.87
108.2981,-3.42
108.3981,-0.03
108.4981,-0.13
108.5981,0.81
108.6981,1.85
108.7981,2.22
108.8981,2.32
108.9981,1.28
109.0981,1.85
109.1981,1.47
109.2981,0.62
109.3981,1.66
109.4981,1.0
109.5981,0.44
109.6981,1.0
109.7981,1.19
109.8981,0.53
109.9981,-0.79
110.0981,0.15
110.1981,-0.6
110.2981,-1.07
110.3981,-0.69
110.4981,-0.6
110.5981,-0.6
110.6981,-1.35
110.7981,-1.92
110.8981,-2.86
110.9981,-1.54
111.0981,-1.26
111.1981,-1.07
111.2981,-0.22
111.3981,-0.6
111.4981,0.44
111.5981,1.0
111.6981,0.72
111.7981,1.57
111.8981,2.22
111.9981,1.66
112.0981,1.94
112.1981,2.6
112.2981,2.41
112.3981,2.41
112.4981,2.41
112.5981,2.79
112.6981,2.51
112.7981,2.69
112.8981,2.13
112.9981,1.19
113.0981,1.28
113.1981,0.34
113.2981,0.91
113.3981,1.09
113.4981,-0.69
113.5981,-2.29
113.6981,-3.33
113.7981,-6.81
113.8981,-11.8
113.9981,-12.74
114.0981,-7.94
114.1981,-5.78
114.2981,-4.36
114.3981,-3.23
114.4981,-1.16
114.5981,-0.79
114.6981,-1.63
114.7981,-0.13
114.8981,-0.51
114.9981,-0.69
115.0981,0.72
115.1981,1.66
115.2981,0.81
115.3981,1.66
115.4981,1.66
115.5981,1.0
115.6981,0.91
115.7981,0.34
115.8981,0.25
115.9981,-0.03
116.0981,1.57
116.1981,1.47
116.2981,2.22
116.3981,0.91
116.4981,2.13
116.5981,2.04
116.6981,1.66
116.7981,2.41
116.8981,2.22
116.9981,2.41
117.0981,2.13
117.1981,1.09
117.2981,1.0
117.3981,0.44
117.4981,0.34
117.5981,0.06
117.6981,0.15
117.7981,0.15
117.8981,-0.32
117.9981,-0.41
118.0981,-0.22
118.1981,1.28
118.2981,-0.03
118.3981,1.28
118.4981,-0.13
118.5981,0.81
118.6981,0.44
118.7981,0.34
118.8981,0.91
118.9981,1.38
119.0981,1.47
119.1981,0.44
119.2981,1.09
119.3981,1.0
119.4981,-0.41
119.5981,-2.1
119.6981,-4.93
119.7981,-8.32
119.8981,-13.78
119.9981,-16.79
120.0981,-18.39
120.1981,-19.61
120.2981,-19.7
120.3981,-19.89
120.4981,-20.18
120.5981,-21.59
120.6981,-24.6
120.7981,-24.79
120.8981,-25.07
120.9981,-25.07
121.0981,-25.07
121.1981,-25.26
121.2981,-25.26
121.3981,-25.16
121.4981,-25.35
121.5981,-25.26
121.6981,-25.16
121.7981,-25.26
121.8981,-25.16
121.9981,-25.07
122.0981,-25.26
122.1981,-25.35
122.2981,-25.54
122.3981,-25.82
122.4981,-25.82
122.5981,-26.1
122.6981,-26.01
122.7981,-26.1
122.8981,-25.54
122.9981,-25.45
123.0981,-25.16
123.1981,-25.07
123.2981,-24.98
123.3981,-24.88
123.4981,-25.35
123.5981,-25.35
123.6981,-25.73
123.7981,-26.01
123.8981,-26.2
123.9981,-26.48
124.0981,-26.76
124.1981,-26.86
124.2981,-26.86
124.3981,-26.58
124.4981,-26.29
124.5981,-26.01
124.6981,-25.73
124.7981,-25.35
124.8981,-24.98
124.9981,-24.79
125.0981,-24.69
125.1981,-21.96
125.2981,-19.99
125.3981,-19.99
125.4981,-19.33
125.5981,-19.23
125.6981,-18.67
125.7981,-16.5
125.8981,-15.19
125.9981,-9.26
126.0981,-4.83
126.1981,-2.01
126.2981,0.53
126.3981,1.09
126.4981,0.81
126.5981,0.44
126.6981,0.25
126.7981,-1.16
126.8981,-0.88
126.9981,-0.32
127.0981,-1.26
127.1981,-1.26
127.2981,-0.32
127.3981,-1.73
127.4981,-1.73
127.5981,-1.26
127.6981,-0.69
127.7981,-0.41
127.8981,-0.79
127.9981,0.25
128.0981,0.25
128.1981,0.81
128.2981,1.57
128.3981,0.72
128.4981,1.19
128.5981,1.38
128.6981,1.0
128.7981,0.72
128.8981,1.57
128.9981,0.72
129.0981,0.72
129.1981,0.53
129.2981,0.34
129.3981,0.81
129.4981,1.28
129.5981,0.91
129.6981,1.85
129.7981,2.04
129.8981,2.6
129.9981,2.69
130.0981,1.85
130.1981,1.94
130.2981,1.94
130.3981,1.0
130.4981,0.25
130.5981,-0.13
130.6981,-0.32
130.7981,-1.26
130.8981,-1.63
130.9981,-0.22
131.0981,0.15
131.1981,-0.51
131.2981,-0.03
131.3981,-1.26
131.4981,-2.39
131.5981,-4.27
131.6981,-6.9
131.7981,-12.74
131.8981,-14.81
131.9981,-9.92
132.0981,-7.0
132.1981,-3.8
132.2981,-1.35
132.3981,-0.51
132.4981,0.15
132.5981,0.72
132.6981,1.38
132.7981,2.6
132.8981,1.75
132.9981,1.47
133.0981,1.66
133.1981,1.28
133.2981,1.28
133.3981,1.19
133.4981,1.09
133.5981,0.81
133.6981,0.53
133.7981,1.0
133.8981,1.38
133.9981,0.62
134.0981,1.0
134.1981,0.15
134.2981,0.25
134.3981,0.15
134.4981,-0.03
134.5981,-0.51
134.6981,-0.88
134.7981,-0.88
134.8981,0.06
134.9981,-0.6
135.0981,-0.41
135.1981,-0.79
135.2981,-1.26
135.3981,-0.79
135.4981,-0.6
135.5981,-1.63
135.6981,-0.79
135.7981,-1.16
135.8981,-1.82
135.9981,-1.54
136.0981,-0.22
136.1981,-0.22
136.2981,0.44
136.3981,0.15
136.4981,0.44
136.5981,0.25
136.6981,1.28
136.7981,1.38
136.8981,1.57
136.9981,0.81
137.0981,1.19
137.1981,0.91
137.2981,1.19
137.3981,-1.26
137.4981,-2.67
137.5981,-4.36
137.6981,-8.41
137.7981,-11.99
137.8981,-11.23
137.9981,-7.56
138.0981,-4.46
138.1981,-2.2
138.2981,-0.13
138.3981,-0.32
138.4981,-0.22
138.5981,-1.54
138.6981,-1.07
138.7981,-1.16
138.8981,-1.35
138.9981,-0.03
139.0981,-0.79
139.1981,-0.69
139.2981,-0.13
139.3981,0.81
139.4981,0.15
139.5981,0.34
139.6981,0.53
139.7981,0.62
139.8981,-0.03
139.9981,1.0
140.0981,0.53
140.1981,0.44
140.2981,0.15
140.3981,-0.51
140.4981,-0.22
140.5981,-0.13
140.6981,-0.03
140.7981,-0.88
140.8981,-2.2
140.9981,-1.54
141.0981,-1.82
141.1981,-1.35
141.2981,-2.1
141.3981,-1.63
141.4981,-0.13
141.5981,0.25
141.6981,1.19
141.7981,0.25
141.8981,-0.03
141.9981,0.53
142.0981,1.19
142.1981,0.91
142.2981,1.0
142.3981,0.53
142.4981,0.44
142.5981,-0.13
142.6981,-0.69
142.7981,-0.03
142.8981,0.34
142.9981,0.81
143.0981,0.91
143.1981,1.0
143.2981,0.81
143.3981,-0.98
143.4981,-2.39
143.5981,-5.3
143.6981,-8.79
143.7981,-11.14
143.8981,-11.33
143.9981,-6.72
144.0981,-4.08
144.1981,-3.33
144.2981,-1.35
144.3981,0.06
144.4981,0.25
144.5981,-0.03
144.6981,-0.22
144.7981,0.34
144.8981,0.25
144.9981,-0.51
145.0981,-1.16
145.1981,-1.54
145.2981,-2.2
145.3981,-1.63
145.4981,-1.45
145.5981,-1.73
145.6981,-0.98
145.7981,-1.07
145.8981,0.25
145.9981,0.44
146.0981,0.72
146.1981,-0.03
146.2981,1.38
146.3981,0.44
146.4981,-0.6
146.5981,-0.22
146.6981,0.53
146.7981,0.34
146.8981,0.25
146.9981,-0.13
147.0981,-0.22
147.1981,-0.03
147.2981,-0.98
147.3981,0.25
147.4981,0.53
147.5981,1.19
147.6981,0.34
147.7981,0.15
147.8981,0.53
147.9981,-0.6
148.0981,-1.26
148.1981,-1.35
148.2981,-2.58
148.3981,-1.63
148.4981,-0.98
148.5981,-1.63
148.6981,-1.35
148.7981,-1.35
148.8981,-1.63
148.9981,-1.16
149.0981,-1.73
149.1981,-1.45
149.2981,-2.29
149.3981,-2.48
149.4981,-4.27
149.5981,-6.81
149.6981,-10.95
149.7981,-12.83
149.8981,-8.13
149.9981,-4.36
150.0981,-2.01
150.1981,-1.16
150.2981,1.0
150.3981,-0.03
150.4981,-0.22
150.5981,1.19
150.6981,0.44
150.7981,1.0
150.8981,-0.13
150.9981,0.91
151.0981,0.34
151.1981,0.53
151.2981,0.44
151.3981,0.72
151.4981,-0.03
151.5981,-0.98
151.6981,-1.92
151.7981,-3.14
151.8981,-2.58
151.9981,-3.05
152.0981,-3.8
152.1981,-2.29
152.2981,-1.92
152.3981,-1.16
152.4981,0.06
152.5981,-0.41
152.6981,0.53
152.7981,0.81
152.8981,1.28
152.9981,1.09
153.0981,0.91
153.1981,0.15
153.2981,-0.13
153.3981,-0.32
153.4981,-0.69
153.5981,-1.16
153.6981,-0.22
153.7981,-0.41
153.8981,-0.51
153.9981,-0.88
154.0981,-0.69
154.1981,-0.13
154.2981,-0.32
154.3981,-0.41
154.4981,-0.98
154.5981,-0.88
154.6981,-0.98
154.7981,-1.16
154.8981,-1.16
154.9981,-1.07
155.0981,-0.98
155.1981,-0.32
155.2981,-1.07
155.3981,-2.29
155.4981,-4.74
155.5981,-7.75
155.6981,-12.74
155.7981,-12.74
155.8981,-7.85
155.9981,-5.96
156.0981,-2.76
156.1981,-1.63
156.2981,-1.07
156.3981,-1.07
156.4981,-0.88
156.5981,-0.69
156.6981,-1.82
156.7981,-0.32
156.8981,-0.51
156.9981,-0.6
157.0981,-0.6
157.1981,-0.22
157.2981,-0.03
157.3981,-0.13
157.4981,0.62
157.5981,0.25
157.6981,0.34
157.7981,0.25
157.8981,-0.32
157.9981,-0.03
158.0981,-0.88
158.1981,-0.98
158.2981,-2.58
158.3981,-3.7
158.4981,-3.99
158.5981,-2.01
158.6981,-2.58
158.7981,-3.61
158.8981,-2.2
158.9981,-1.45
159.0981,-0.13
159.1981,-0.22
159.2981,-0.51
159.3981,0.91
159.4981,0.72
159.5981,-0.69
159.6981,-0.32
159.7981,0.15
159.8981,-0.32
159.9981,-0.22
160.0981,-0.98
160.1981,0.44
160.2981,-0.22
160.3981,-0.32
160.4981,0.44
160.5981,1.09
160.6981,0.44
160.7981,-0.22
160.8981,0.34
160.9981,0.06
161.0981,-0.88
161.1981,-1.45
161.2981,-3.42
161.3981,-5.49
161.4981,-6.9
161.5981,-12.08
161.6981,-15.56
161.7981,-12.83
161.8981,-8.32
161.9981,-5.3
162.0981,-4.08
162.1981,-2.48
162.2981,-2.01
162.3981,-2.58
162.4981,-1.92
162.5981,-2.86
162.6981,-2.1
162.7981,-1.26
162.8981,-2.67
162.9981,-2.1
163.0981,-2.29
163.1981,-1.26
163.2981,-0.6
163.3981,-0.41
163.4981,-0.69
163.5981,-0.41
163.6981,-0.41
163.7981,-0.22
163.8981,1.38
163.9981,0.72
164.0981,-0.13
164.1981,0.81
164.2981,1.0
164.3981,1.57
164.4981,1.0
164.5981,0.44
164.6981,1.0
164.7981,0.06
164.8981,-0.6
164.9981,-0.98
165.0981,-1.92
165.1981,-2.29
165.2981,-3.33
165.3981,-3.14
165.4981,-3.33
165.5981,-3.23
165.6981,-3.23
165.7981,-3.89
165.8981,-2.76
165.9981,-2.2
166.0981,-1.82
166.1981,-1.92
166.2981,-2.01
166.3981,-2.01
166.4981,-2.01
166.5981,-1.92
166.6981,-1.54
166.7981,-2.01
166.8981,-0.88
166.9981,-0.88
167.0981,-0.41
167.1981,-0.79
167.2981,-1.26
167.3981,-3.8
167.4981,-6.81
167.5981,-11.8
167.6981,-14.34
167.7981,-9.92
167.8981,-6.15
167.9981,-4.65
168.0981,-3.23
168.1981,-2.2
168.2981,-2.29
168.3981,-1.16
168.4981,-1.07
168.5981,-0.6
168.6981,-1.07
168.7981,-1.26
168.8981,-0.88
168.9981,-1.35
169.0981,-2.29
169.1981,-1.54
169.2981,-1.92
169.3981,-2.2
169.4981,-2.01
169.5981,-2.39
169.6981,-2.58
169.7981,-3.7
169.8981,-3.23
169.9981,-3.05
170.0981,-3.14
170.1981,-2.39
170.2981,-2.67
170.3981,-2.95
170.4981,-2.2
170.5981,-2.29
170.6981,-2.2
170.7981,-2.1
170.8981,-1.54
170.9981,-0.98
171.0981,-0.98
171.1981,-1.07
171.2981,-0.51
171.3981,-0.6
171.4981,-0.69
171.5981,-1.73
171.6981,-2.1
171.7981,-1.92
171.8981,-1.35
171.9981,-2.58
172.0981,-1.63
172.1981,-1.45
172.2981,-2.29
172.3981,-0.69
172.4981,-0.51
172.5981,-1.35
172.6981,-1.07
172.7981,-0.41
172.8981,-0.69
172.9981,-2.2
173.0981,-2.01
173.1981,-3.14
173.2981,-5.49
173.3981,-7.38
173.4981,-10.86
173.5981,-15.09
173.6981,-15.19
173.7981,-10.39
173.8981,-7.0
173.9981,-4.74
174.0981,-3.61
174.1981,-3.52
174.2981,-3.05
174.3981,-2.67
174.4981,-3.05
174.5981,-2.58
174.6981,-3.42
174.7981,-3.05
174.8981,-3.14
174.9981,-2.48
175.0981,-3.05
175.1981,-2.29
175.2981,-2.29
175.3981,-2.29
175.4981,-1.26
175.5981,-1.92
175.6981,-0.88
175.7981,-0.79
175.8981,-2.48
175.9981,-1.63
176.0981,-0.98
176.1981,-1.63
176.2981,-2.95
176.3981,-2.95
176.4981,-1.54
176.5981,-1.73
176.6981,-1.45
176.7981,-1.45
176.8981,-1.73
176.9981,-1.07
177.0981,-0.6
177.1981,-1.07
177.2981,-1.07
177.3981,-0.6
177.4981,-1.26
177.5981,-1.16
177.6981,-1.26
177.7981,-1.35
177.8981,-1.63
177.9981,-2.2
178.0981,-2.95
178.1981,-3.99
178.2981,-4.83
178.3981,-5.59
178.4981,-5.4
178.5981,-6.53
178.6981,-5.68
178.7981,-6.15
178.8981,-5.12
178.9981,-5.49
179.0981,-6.34
179.1981,-6.53
179.2981,-6.9
179.3981,-9.26
179.4981,-13.02
179.5981,-16.41
179.6981,-13.3
179.7981,-7.66
179.8981,-5.3
179.9981,-3.14
180.0981,-0.98
180.1981,-0.51
180.2981,0.34
180.3981,-0.03
180.4981,0.34
180.5981,0.15
180.6981,-0.22
180.7981,-0.22
180.8981,-1.35
180.9981,-1.54
181.0981,-1.54
181.1981,-1.92
181.2981,-2.95
181.3981,-2.95
181.4981,-3.23
181.5981,-3.05
181.6981,-3.52
181.7981,-2.67
181.8981,-3.33
181.9981,-3.61
182.0981,-5.02
182.1981,-4.74
182.2981,-5.12
182.3981,-5.3
182.4981,-5.4
182.5981,-5.78
182.6981,-6.15
182.7981,-5.78
182.8981,-5.78
182.9981,-5.59
183.0981,-5.49
183.1981,-5.49
183.2981,-4.55
183.3981,-4.08
183.4981,-3.89
183.5981,-3.42
183.6981,-2.01
183.7981,-1.45
183.8981,-1.16
183.9981,-0.03
184.0981,-0.88
184.1981,0.62
184.2981,0.53
184.3981,-0.22
184.4981,-0.79
184.5981,-0.51
184.6981,-1.82
184.7981,-2.1
184.8981,-2.01
184.9981,-1.92
185.0981,-2.29
185.1981,-3.23
185.2981,-6.43
185.3981,-8.22
185.4981,-12.93
185.5981,-16.22
185.6981,-13.02
185.7981,-9.92
185.8981,-7.66
185.9981,-7.47
186.0981,-7.28
186.1981,-7.47
186.2981,-7.94
186.3981,-7.75
186.4981,-6.25
186.5981,-5.3
186.6981,-4.65
186.7981,-3.89
186.8981,-3.23
186.9981,-3.42
187.0981,-4.74
187.1981,-3.52
187.2981,-3.33
187.3981,-3.7
187.4981,-3.61
187.5981,-4.08
187.6981,-3.7
187.7981,-3.14
187.8981,-3.42
187.9981,-2.95
188.0981,-3.7
188.1981,-2.95
188.2981,-1.82
188.3981,-1.73
188.4981,-0.13
188.5981,-1.82
188.6981,-1.73
188.7981,-1.63
188.8981,-2.1
188.9981,-2.67
189.0981,-2.01
189.1981,-2.76
189.2981,-3.05
189.3981,-4.36
189.4981,-4.08
189.5981,-4.55
189.6981,-5.12
189.7981,-5.49
189.8981,-5.21
189.9981,-5.02
190.0981,-6.15
190.1981,-4.74
190.2981,-5.68
190.3981,-4.93
190.4981,-4.83
190.5981,-3.89
190.6981,-3.61
190.7981,-3.61
190.8981,-4.18
190.9981,-3.89
191.0981,-4.36
191.1981,-5.78
191.2981,-7.75
191.3981,-10.2
191.4981,-15.0
191.5981,-15.85
191.6981,-11.61
191.7981,-7.09
191.8981,-5.78
191.9981,-4.65
192.0981,-4.27
192.1981,-4.65
192.2981,-4.93
192.3981,-6.62
192.4981,-6.15
192.5981,-6.72
192.6981,-7.09
192.7981,-5.96
192.8981,-5.21
192.9981,-3.05
193.0981,-2.95
193.1981,-1.82
193.2981,-2.2
193.3981,-2.1
193.4981,-2.01
193.5981,-1.45
193.6981,-2.1
193.7981,-3.8
193.8981,-3.52
193.9981,-3.61
194.0981,-3.7
194.1981,-4.74
194.2981,-4.55
194.3981,-5.3
194.4981,-3.99
194.5981,-4.36
194.6981,-3.8
194.7981,-4.27
194.8981,-4.08
194.9981,-4.27
195.0981,-3.8
195.1981,-5.3
195.2981,-5.78
195.3981,-6.72
195.4981,-8.22
195.5981,-7.85
195.6981,-7.09
195.7981,-6.9
195.8981,-5.68
195.9981,-4.74
196.0981,-4.27
196.1981,-4.08
196.2981,-4.08
196.3981,-3.99
196.4981,-4.83
196.5981,-5.4
196.6981,-4.27
196.7981,-4.18
196.8981,-4.46
196.9981,-4.27
197.0981,-4.46
197.1981,-5.68
197.2981,-7.94
197.3981,-11.89
197.4981,-15.75
197.5981,-13.78
197.6981,-8.98
197.7981,-7.38
197.8981,-5.49
197.9981,-4.46
198.0981,-2.95
198.1981,-3.42
198.2981,-3.7
198.3981,-3.61
198.4981,-4.18
198.5981,-5.49
198.6981,-5.78
198.7981,-6.25
198.8981,-6.62
198.9981,-6.53
199.0981,-7.19
199.1981,-8.41
199.2981,-8.32
199.3981,-8.88
199.4981,-8.88
199.5981,-7.75
199.6981,-6.9
199.7981,-6.06
199.8981,-4.93
199.9981,-4.74
200.0981,-3.61
200.1981,-3.61
200.2981,-3.8
200.3981,-3.61
200.4981,-3.99
200.5981,-3.7
200.6981,-5.02
200.7981,-5.02
200.8981,-5.4
200.9981,-4.83
201.0981,-4.93
201.1981,-4.93
201.2981,-3.52
201.3981,-2.86
201.4981,-2.29
201.5981,-1.82
201.6981,-3.05
201.7981,-2.01
201.8981,-3.7
201.9981,-2.76
202.0981,-3.42
202.1981,-3.61
202.2981,-3.89
202.3981,-4.83
202.4981,-5.68
202.5981,-6.43
202.6981,-5.87
202.7981,-6.06
202.8981,-7.66
202.9981,-7.0
203.0981,-9.63
203.1981,-10.86
203.2981,-14.25
203.3981,-18.2
203.4981,-21.96
203.5981,-17.73
203.6981,-13.02
203.7981,-9.73
203.8981,-8.22
203.9981,-6.06
204.0981,-4.83
204.1981,-4.74
204.2981,-4.18
204.3981,-4.27
204.4981,-3.42
204.5981,-3.05
204.6981,-2.58
204.7981,-3.05
204.8981,-2.76
204.9981,-2.01
205.0981,-2.48
205.1981,-2.76
205.2981,-3.05
205.3981,-3.33
205.4981,-4.55
205.5981,-4.93
205.6981,-5.59
205.7981,-6.62
205.8981,-8.5
205.9981,-9.92
206.0981,-9.63
206.1981,-9.45
206.2981,-8.22
206.3981,-6.06
206.4981,-5.68
206.5981,-5.12
206.6981,-4.55
206.7981,-4.83
206.8981,-3.89
206.9981,-3.8
207.0981,-4.08
207.1981,-4.55
207.2981,-5.12
207.3981,-5.49
207.4981,-6.06
207.5981,-5.68
207.6981,-6.06
207.7981,-5.3
207.8981,-5.02
207.9981,-4.55
208.0981,-4.27
208.1981,-4.93
208.2981,-4.65
208.3981,-4.36
208.4981,-5.78
208.5981,-5.78
208.6981,-6.06
208.7981,-6.72
208.8981,-7.47
208.9981,-7.94
209.0981,-8.6
209.1981,-10.86
209.2981,-13.4
209.3981,-17.92
209.4981,-18.76
209.5981,-13.4
209.6981,-10.58
209.7981,-8.13
209.8981,-7.56
209.9981,-5.87
210.0981,-6.06
210.1981,-5.68
210.2981,-5.21
210.3981,-5.12
210.4981,-4.83
210.5981,-5.02
210.6981,-4.83
210.7981,-5.4
210.8981,-3.99
210.9981,-3.8
211.0981,-4.46
211.1981,-4.93
211.2981,-4.74
211.3981,-5.59
211.4981,-4.93
211.5981,-4.93
211.6981,-5.49
211.7981,-4.83
211.8981,-5.3
211.9981,-6.06
212.0981,-5.78
212.1981,-6.34
212.2981,-6.81
212.3981,-8.03
212.4981,-9.07
212.5981,-10.2
212.6981,-11.14
212.7981,-11.52
212.8981,-9.54
212.9981,-7.75
213.0981,-6.25
213.1981,-5.59
213.2981,-3.33
213.3981,-3.33
213.4981,-3.33
213.5981,-3.14
213.6981,-3.89
213.7981,-4.55
213.8981,-4.65
213.9981,-5.3
214.0981,-5.12
214.1981,-5.68
214.2981,-5.12
214.3981,-5.02
214.4981,-4.18
214.5981,-4.46
214.6981,-4.18
214.7981,-3.89
214.8981,-4.46
214.9981,-5.12
215.0981,-7.94
215.1981,-11.23
215.2981,-15.28
215.3981,-21.12
215.4981,-20.74
215.5981,-16.32
215.6981,-12.55
215.7981,-9.82
215.8981,-7.19
215.9981,-6.34
216.0981,-5.96
216.1981,-5.78
216.2981,-5.96
216.3981,-5.4
216.4981,-6.06
216.5981,-6.25
216.6981,-7.94
216.7981,-9.26
216.8981,-9.82
216.9981,-11.14
217.0981,-10.76
217.1981,-8.41
217.2981,-7.56
217.3981,-6.53
217.4981,-4.93
217.5981,-5.02
217.6981,-4.36
217.7981,-3.42
217.8981,-3.52
217.9981,-3.33
218.0981,-3.42
218.1981,-4.46
218.2981,-5.21
218.3981,-3.14
218.4981,-3.89
218.5981,-3.89
218.6981,-5.3
218.7981,-4.46
218.8981,-4.27
218.9981,-4.55
219.0981,-5.02
219.1981,-5.87
219.2981,-7.09
219.3981,-7.38
219.4981,-8.41
219.5981,-8.79
219.6981,-8.5
219.7981,-9.63
219.8981,-9.16
219.9981,-8.98
220.0981,-7.94
220.1981,-9.35
220.2981,-8.41
220.3981,-8.03
220.4981,-7.85
220.5981,-6.43
220.6981,-6.62
220.7981,-6.43
220.8981,-7.0
220.9981,-6.9
221.0981,-8.6
221.1981,-11.05
221.2981,-14.53
221.3981,-18.2
221.4981,-15.38
221.5981,-11.89
221.6981,-10.29
221.7981,-8.98
221.8981,-9.26
221.9981,-9.45
222.0981,-9.45
222.1981,-8.69
222.2981,-8.79
222.3981,-7.28
222.4981,-6.72
222.5981,-6.43
222.6981,-5.59
222.7981,-5.49
222.8981,-5.02
222.9981,-5.4
223.0981,-4.74
223.1981,-5.96
223.2981,-7.56
223.3981,-7.09
223.4981,-6.53
223.5981,-7.0
223.6981,-6.25
223.7981,-5.59
223.8981,-4.74
223.9981,-4.74
224.0981,-4.93
224.1981,-4.08
224.2981,-6.9
224.3981,-5.59
224.4981,-6.9
224.5981,-6.81
224.6981,-6.9
224.7981,-8.03
224.8981,-8.6
224.9981,-8.88
225.0981,-8.69
225.1981,-7.66
225.2981,-8.03
225.3981,-8.98
225.4981,-8.69
225.5981,-8.41
225.6981,-10.39
225.7981,-11.8
225.8981,-11.52
225.9981,-12.36
226.0981,-11.14
226.1981,-9.92
226.2981,-8.69
226.3981,-7.47
226.4981,-6.25
226.5981,-5.21
226.6981,-5.12
226.7981,-4.27
226.8981,-5.49
226.9981,-6.25
227.0981,-8.41
227.1981,-10.76
227.2981,-16.03
227.3981,-17.82
227.4981,-13.4
227.5981,-9.16
227.6981,-6.15
227.7981,-6.15
227.8981,-4.27
227.9981,-4.46
228.0981,-3.7
228.1981,-4.74
228.2981,-5.3
228.3981,-5.3
228.4981,-7.38
228.5981,-9.07
228.6981,-10.86
228.7981,-12.93
228.8981,-13.68
228.9981,-12.08
229.0981,-11.14
229.1981,-10.86
229.2981,-10.1
229.3981,-10.01
229.4981,-10.86
229.5981,-10.2
229.6981,-10.39
229.7981,-11.89
229.8981,-11.7
229.9981,-12.65
230.0981,-11.23
230.1981,-10.1
230.2981,-9.16
230.3981,-6.62
230.4981,-5.49
230.5981,-5.02
230.6981,-3.99
230.7981,-3.61
230.8981,-3.61
230.9981,-3.99
231.0981,-3.23
231.1981,-2.95
231.2981,-4.18
231.3981,-4.18
231.4981,-3.99
231.5981,-4.55
231.6981,-4.36
231.7981,-3.89
231.8981,-4.27
231.9981,-4.18
232.0981,-4.93
232.1981,-4.83
232.2981,-5.02
232.3981,-5.12
232.4981,-7.47
232.5981,-7.47
232.6981,-9.35
232.7981,-11.7
232.8981,-15.94
232.9981,-20.18
233.0981,-29.12
233.1981,-31.56
233.2981,-31.19
233.3981,-26.86
233.4981,-19.05
233.5981,-15.28
233.6981,-11.23
233.7981,-9.07
233.8981,-7.56
233.9981,-6.72
234.0981,-6.43
234.1981,-4.83
234.2981,-5.12
234.3981,-5.12
234.4981,-4.27
234.5981,-5.49
234.6981,-5.21
234.7981,-5.12
234.8981,-5.3
234.9981,-5.3
235.0981,-6.25
235.1981,-5.49
235.2981,-6.15
235.3981,-5.96
235.4981,-5.68
235.5981,-5.3
235.6981,-5.49
235.7981,-4.83
235.8981,-5.59
235.9981,-6.15
236.0981,-6.06
236.1981,-6.34
236.2981,-7.28
236.3981,-8.6
236.4981,-9.54
236.5981,-10.58
236.6981,-12.46
236.7981,-15.19
236.8981,-16.32
236.9981,-15.85
237.0981,-13.4
237.1981,-11.8
237.2981,-11.05
237.3981,-10.2
237.4981,-10.1
237.5981,-9.92
237.6981,-8.22
237.7981,-9.92
237.8981,-9.26
237.9981,-7.75
238.0981,-7.85
238.1981,-7.66
238.2981,-6.9
238.3981,-7.0
238.4981,-6.25
238.5981,-5.96
238.6981,-6.53
238.7981,-6.62
238.8981,-7.66
238.9981,-9.16
239.0981,-12.36
239.1981,-17.35
239.2981,-21.4
239.3981,-18.86
239.4981,-15.19
239.5981,-11.42
239.6981,-9.82
239.7981,-9.35
239.8981,-7.66
239.9981,-8.13
240.0981,-8.88
240.1981,-9.07
240.2981,-8.6
240.3981,-7.85
240.4981,-7.38
240.5981,-7.19
240.6981,-6.62
240.7981,-6.53
240.8981,-5.12
240.9981,-5.12
241.0981,-5.4
241.1981,-5.96
241.2981,-5.59
241.3981,-6.43
241.4981,-8.41
241.5981,-9.45
241.6981,-11.8
241.7981,-14.62
241.8981,-19.14
241.9981,-19.99
