Frequency(MHz),Power(dBmV/100kHz)_20260203_091320
107.8981,-32.38
107.9981,-33.23
108.0981,-36.62
108.1981,-39.44
108.2981,-35.21
108.3981,-30.88
108.4981,-28.34
108.5981,-27.77
108.6981,-29.28
108.7981,-34.17
108.8981,-41.8
108.9981,-32.38
109.0981,-28.71
109.1981,-27.49
109.2981,-27.77
109.3981,-28.9
109.4981,-31.07
109.5981,-35.3
109.6981,-37.09
109.7981,-32.76
109.8981,-30.69
109.9981,-30.88
110.0981,-32.29
110.1981,-33.23
110.2981,-34.08
110.3981,-37.37
110.4981,-54.41
110.5981,-38.69
110.6981,-34.17
110.7981,-33.98
110.8981,-37.18
110.9981,-39.44
111.0981,-36.62
111.1981,-33.98
111.2981,-31.54
111.3981,-29.56
111.4981,-28.9
111.5981,-30.13
111.6981,-31.54
111.7981,-29.75
111.8981,-27.87
111.9981,-27.58
112.0981,-29.09
112.1981,-31.63
112.2981,-32.1
112.3981,-29.94
112.4981,-28.81
112.5981,-28.24
112.6981,-28.43
112.7981,-30.22
112.8981,-35.11
112.9981,-43.11
113.0981,-33.89
113.1981,-30.78
113.2981,-27.96
113.3981,-30.5
113.4981,-35.3
113.5981,-44.05
113.6981,-37.18
113.7981,-29.94
113.8981,-24.67
113.9981,-19.96
114.0981,-14.22
114.1981,-13.0
114.2981,-11.3
114.3981,-7.63
114.4981,-3.02
114.5981,-0.48
114.6981,1.87
114.7981,1.59
114.8981,-0.67
114.9981,-3.21
115.0981,-6.41
115.1981,-2.45
115.2981,0.27
115.3981,1.22
115.4981,1.97
115.5981,-0.01
115.6981,-3.58
115.7981,-10.17
115.8981,-11.4
115.9981,-6.31
116.0981,-3.96
116.1981,-5.65
116.2981,-8.57
116.3981,-14.41
116.4981,-13.94
116.5981,-11.77
116.6981,-12.34
116.7981,-12.34
116.8981,-9.23
116.9981,-5.75
117.0981,-4.53
117.1981,-4.62
117.2981,-5.37
117.3981,-4.71
117.4981,-3.68
117.5981,-2.36
117.6981,-2.74
117.7981,-1.89
117.8981,-1.42
117.9981,-0.01
118.0981,0.37
118.1981,0.65
118.2981,-0.85
118.3981,-3.87
118.4981,-6.13
118.5981,-3.87
118.6981,-1.98
118.7981,-1.8
118.8981,-2.36
118.9981,-6.5
119.0981,-15.63
119.1981,-15.54
119.2981,-7.63
119.3981,-4.15
119.4981,-5.65
119.5981,-9.51
119.6981,-21.75
119.7981,-20.71
119.8981,-18.08
119.9981,-14.41
120.0981,-10.27
120.1981,-8.85
120.2981,-8.2
120.3981,-5.84
120.4981,-4.53
120.5981,-4.05
120.6981,-3.96
120.7981,-2.08
120.8981,-2.27
120.9981,-2.93
121.0981,-3.02
121.1981,-3.11
121.2981,-4.53
121.3981,-4.34
121.4981,-2.27
121.5981,-2.45
121.6981,-1.98
121.7981,-5.56
121.8981,-14.31
121.9981,-8.95
122.0981,-5.0
122.1981,-4.43
122.2981,-7.07
122.3981,-12.34
122.4981,-16.67
122.5981,-7.44
122.6981,-2.93
122.7981,-1.04
122.8981,-1.14
122.9981,-4.24
123.0981,-7.91
123.1981,-7.35
123.2981,-3.02
123.3981,-0.29
123.4981,-1.7
123.5981,-3.77
123.6981,-4.43
123.7981,-6.5
123.8981,-7.63
123.9981,-6.03
124.0981,-4.53
124.1981,-4.9
124.2981,-5.18
124.3981,-5.47
124.4981,-5.94
124.5981,-6.69
124.6981,-8.67
124.7981,-6.6
124.8981,-4.24
124.9981,-4.05
125.0981,-4.43
125.1981,-9.51
125.2981,-10.64
125.3981,-6.78
125.4981,-5.75
125.5981,-7.16
125.6981,-9.14
125.7981,-14.88
125.8981,-19.96
125.9981,-14.6
126.0981,-8.29
126.1981,-4.24
126.2981,-3.21
126.3981,-4.15
126.4981,-7.73
126.5981,-5.94
126.6981,-4.15
126.7981,-2.45
126.8981,-3.4
126.9981,-5.75
127.0981,-13.47
127.1981,-17.98
127.2981,-7.91
127.3981,-5.18
127.4981,-4.53
127.5981,-4.71
127.6981,-7.63
127.7981,-9.42
127.8981,-8.95
127.9981,-5.56
128.0981,-2.64
128.1981,-0.95
128.2981,-0.85
128.3981,-0.57
128.4981,-3.49
128.5981,-8.1
128.6981,-8.48
128.7981,-1.8
128.8981,0.65
128.9981,1.5
129.0981,0.27
129.1981,-1.51
129.2981,-4.05
129.3981,-7.44
129.4981,-4.9
129.5981,-1.8
129.6981,-1.7
129.7981,-1.98
129.8981,-5.84
129.9981,-12.43
130.0981,-12.43
130.1981,-10.45
130.2981,-12.62
130.3981,-16.1
130.4981,-12.9
130.5981,-9.7
130.6981,-7.44
130.7981,-4.62
130.8981,-2.45
130.9981,-3.21
131.0981,-4.62
131.1981,-3.49
131.2981,-1.33
131.3981,-1.7
131.4981,-3.58
131.5981,-5.28
131.6981,-7.44
131.7981,-12.34
131.8981,-17.8
131.9981,-20.62
132.0981,-22.88
132.1981,-22.22
132.2981,-21.75
132.3981,-22.13
132.4981,-23.25
132.5981,-29.28
132.6981,-33.23
132.7981,-35.3
132.8981,-31.25
132.9981,-29.09
133.0981,-29.56
133.1981,-32.85
133.2981,-40.29
133.3981,-37.56
133.4981,-33.23
133.5981,-31.63
133.6981,-31.54
133.7981,-33.04
133.8981,-35.3
133.9981,-33.14
134.0981,-29.0
134.1981,-26.64
134.2981,-25.98
134.3981,-26.55
134.4981,-26.93
134.5981,-27.02
134.6981,-27.21
134.7981,-28.15
134.8981,-28.24
134.9981,-27.3
135.0981,-26.36
135.1981,-26.36
135.2981,-27.4
135.3981,-29.37
135.4981,-31.44
135.5981,-32.76
135.6981,-31.73
135.7981,-30.5
135.8981,-30.6
135.9981,-33.7
136.0981,-44.15
136.1981,-39.91
136.2981,-33.14
136.3981,-31.91
136.4981,-33.98
136.5981,-40.76
136.6981,-38.5
136.7981,-31.44
136.8981,-28.05
136.9981,-26.74
137.0981,-26.83
137.1981,-24.57
137.2981,-25.33
137.3981,-24.38
137.4981,-22.5
137.5981,-20.53
137.6981,-17.51
137.7981,-11.87
137.8981,-12.24
137.9981,-9.33
138.0981,-7.44
138.1981,-5.47
138.2981,-5.0
138.3981,-4.24
138.4981,-5.09
138.5981,-4.53
138.6981,-4.81
138.7981,-7.82
138.8981,-13.47
138.9981,-12.53
139.0981,-9.42
139.1981,-8.29
139.2981,-8.48
139.3981,-9.7
139.4981,-9.7
139.5981,-6.22
139.6981,-4.53
139.7981,-3.77
139.8981,-3.77
139.9981,-7.16
140.0981,-5.09
140.1981,-3.21
140.2981,-1.61
140.3981,-0.85
140.4981,-2.17
140.5981,-1.98
140.6981,-5.0
140.7981,-4.9
140.8981,-2.83
140.9981,-0.38
141.0981,0.37
141.1981,-0.76
141.2981,-5.0
141.3981,-6.88
141.4981,-7.16
141.5981,-6.22
141.6981,-5.47
141.7981,-3.49
141.8981,-2.55
141.9981,-5.65
142.0981,-9.42
142.1981,-12.9
142.2981,-6.88
142.3981,-3.4
142.4981,-2.64
142.5981,-0.85
142.6981,-1.42
142.7981,-5.0
142.8981,-11.21
142.9981,-5.0
143.0981,-0.76
143.1981,-0.2
143.2981,-0.95
143.3981,-3.21
143.4981,-8.2
143.5981,-13.37
143.6981,-15.25
143.7981,-17.33
143.8981,-12.43
143.9981,-8.01
144.0981,-7.73
144.1981,-9.23
144.2981,-6.03
144.3981,-5.28
144.4981,-6.41
144.5981,-7.44
144.6981,-5.47
144.7981,-3.21
144.8981,-3.77
144.9981,-5.28
145.0981,-4.81
145.1981,-5.18
145.2981,-5.75
145.3981,-4.15
145.4981,-2.45
145.5981,-1.04
145.6981,-1.04
145.7981,-1.04
145.8981,-1.61
145.9981,-2.27
146.0981,-3.77
146.1981,-6.22
146.2981,-5.18
146.3981,-3.21
146.4981,-1.33
146.5981,-1.51
146.6981,-1.89
146.7981,-6.22
146.8981,-22.88
146.9981,-9.89
147.0981,-3.68
147.1981,-2.93
147.2981,-2.45
147.3981,-5.65
147.4981,-11.21
147.5981,-10.17
147.6981,-3.68
147.7981,-2.27
147.8981,-1.8
147.9981,-1.23
148.0981,-3.21
148.1981,-3.68
148.2981,-4.53
148.3981,-4.43
148.4981,-2.08
148.5981,-1.33
148.6981,-0.85
148.7981,-0.76
148.8981,-1.51
148.9981,-2.74
149.0981,-3.11
149.1981,-4.71
149.2981,-5.28
149.3981,-4.15
149.4981,-6.22
149.5981,-10.55
149.6981,-18.83
149.7981,-29.47
149.8981,-21.56
149.9981,-14.5
150.0981,-13.84
150.1981,-18.64
150.2981,-13.09
150.3981,-6.22
150.4981,-3.68
150.5981,-1.8
150.6981,-1.8
150.7981,-3.77
150.8981,-4.81
150.9981,-3.02
151.0981,0.27
151.1981,0.74
151.2981,0.84
151.3981,0.74
151.4981,-0.85
151.5981,-1.33
151.6981,-0.85
151.7981,-1.33
151.8981,-0.29
151.9981,-0.38
152.0981,0.09
152.1981,-1.7
152.2981,-3.02
152.3981,-5.84
152.4981,-7.07
152.5981,-8.67
152.6981,-6.22
152.7981,-5.18
152.8981,-5.75
152.9981,-11.49
153.0981,-22.88
153.1981,-9.98
153.2981,-6.31
153.3981,-3.77
153.4981,-2.55
153.5981,-5.0
153.6981,-5.47
153.7981,-3.77
153.8981,-0.76
153.9981,0.56
154.0981,0.56
154.1981,-1.33
154.2981,-1.8
154.3981,-0.85
154.4981,0.74
154.5981,1.22
154.6981,0.37
154.7981,-0.29
154.8981,-2.27
154.9981,-3.21
155.0981,-4.15
155.1981,-1.61
155.2981,-1.8
155.3981,-4.15
155.4981,-9.33
155.5981,-16.29
155.6981,-24.01
155.7981,-24.95
155.8981,-16.1
155.9981,-9.98
156.0981,-7.63
156.1981,-7.07
156.2981,-11.49
156.3981,-13.75
156.4981,-6.88
156.5981,-2.17
156.6981,0.84
156.7981,0.93
156.8981,0.27
156.9981,-2.08
157.0981,-6.22
157.1981,-3.21
157.2981,0.18
157.3981,1.31
157.4981,2.63
157.5981,1.31
157.6981,-0.1
157.7981,-2.36
157.8981,-4.71
157.9981,-3.49
158.0981,-3.21
158.1981,-2.27
158.2981,-2.55
158.3981,-2.93
158.4981,-5.0
158.5981,-7.82
158.6981,-10.36
158.7981,-11.21
158.8981,-8.1
158.9981,-5.47
159.0981,-4.43
159.1981,-4.53
159.2981,-4.62
159.3981,-7.35
159.4981,-6.41
159.5981,-4.43
159.6981,-3.21
159.7981,-2.74
159.8981,-0.85
159.9981,0.09
160.0981,1.03
160.1981,-1.8
160.2981,-3.21
160.3981,-4.05
160.4981,-3.68
160.5981,-2.74
160.6981,0.09
160.7981,0.09
160.8981,-0.48
160.9981,-3.77
161.0981,-12.62
161.1981,-10.93
161.2981,-5.37
161.3981,-5.18
161.4981,-6.78
161.5981,-11.77
161.6981,-19.49
161.7981,-25.89
161.8981,-14.31
161.9981,-6.5
162.0981,-2.45
162.1981,-1.51
162.2981,-1.61
162.3981,-1.8
162.4981,-2.93
162.5981,-5.56
162.6981,-4.9
162.7981,-2.55
162.8981,0.18
162.9981,0.56
163.0981,-0.76
163.1981,-3.21
163.2981,-5.75
163.3981,-8.95
163.4981,-5.94
163.5981,-2.45
163.6981,-0.85
163.7981,-1.89
163.8981,-5.28
163.9981,-9.7
164.0981,-9.14
164.1981,-7.07
164.2981,-6.03
164.3981,-4.9
164.4981,-3.96
164.5981,-3.4
164.6981,-2.83
164.7981,-0.85
164.8981,-1.61
164.9981,-3.87
165.0981,-4.05
165.1981,-1.33
165.2981,0.84
165.3981,1.5
165.4981,1.5
165.5981,0.74
165.6981,-1.04
165.7981,-3.02
165.8981,-3.68
165.9981,-4.15
166.0981,-2.08
166.1981,-1.8
166.2981,-1.23
166.3981,-2.27
166.4981,-5.65
166.5981,-11.11
166.6981,-14.6
166.7981,-9.04
166.8981,-4.9
166.9981,-4.43
167.0981,-5.28
167.1981,-10.17
167.2981,-13.18
167.3981,-8.38
167.4981,-7.63
167.5981,-9.98
167.6981,-12.81
167.7981,-9.51
167.8981,-6.97
167.9981,-4.9
168.0981,-1.23
168.1981,1.12
168.2981,2.25
168.3981,0.93
168.4981,-0.2
168.5981,-0.29
168.6981,-0.2
168.7981,-0.48
168.8981,-0.29
168.9981,-2.17
169.0981,-2.74
169.1981,-5.0
169.2981,-4.53
169.3981,-5.47
169.4981,-6.03
169.5981,-6.97
169.6981,-8.67
169.7981,-12.24
169.8981,-15.73
169.9981,-10.93
170.0981,-6.6
170.1981,-4.71
170.2981,-3.96
170.3981,-2.17
170.4981,-2.55
170.5981,-3.77
170.6981,-3.4
170.7981,0.56
170.8981,2.16
170.9981,2.63
171.0981,1.78
171.1981,0.84
171.2981,-0.85
171.3981,-2.17
171.4981,-0.01
171.5981,1.78
171.6981,2.16
171.7981,1.97
171.8981,0.65
171.9981,-2.83
172.0981,-5.0
172.1981,-5.56
172.2981,-5.84
172.3981,-4.43
172.4981,-3.87
172.5981,-3.11
172.6981,-6.22
172.7981,-13.0
172.8981,-17.7
172.9981,-9.04
173.0981,-5.75
173.1981,-3.11
173.2981,-4.81
173.3981,-6.22
173.4981,-10.36
173.5981,-16.1
173.6981,-14.03
173.7981,-6.97
173.8981,-4.15
173.9981,-1.14
174.0981,1.03
174.1981,2.25
174.2981,1.97
174.3981,1.59
174.4981,0.65
174.5981,-0.1
174.6981,-1.42
174.7981,-1.51
174.8981,0.09
174.9981,1.59
175.0981,0.65
175.1981,-1.04
175.2981,-7.07
175.3981,-18.45
175.4981,-6.69
175.5981,-1.89
175.6981,-1.61
175.7981,-1.89
175.8981,-5.94
175.9981,-14.41
176.0981,-10.08
176.1981,-3.49
176.2981,-0.76
176.3981,0.65
176.4981,0.74
176.5981,0.84
176.6981,-1.8
176.7981,-3.87
176.8981,-2.64
176.9981,0.37
177.0981,1.4
177.1981,2.82
177.2981,2.44
177.3981,0.65
177.4981,-1.51
177.5981,-3.4
177.6981,-4.05
177.7981,-1.61
177.8981,-0.85
177.9981,-0.57
178.0981,-2.55
178.1981,-5.65
178.2981,-8.57
178.3981,-6.6
178.4981,-4.62
178.5981,-3.68
178.6981,-3.21
178.7981,-3.11
178.8981,-2.74
178.9981,-3.68
179.0981,-4.24
179.1981,-5.84
179.2981,-5.65
179.3981,-5.65
179.4981,-8.1
179.5981,-12.9
179.6981,-11.11
179.7981,-7.91
179.8981,-6.22
179.9981,-5.18
180.0981,-3.02
180.1981,-0.85
180.2981,0.65
180.3981,0.18
180.4981,0.56
180.5981,-0.38
180.6981,-2.93
180.7981,-6.6
180.8981,-7.44
180.9981,-1.8
181.0981,-0.48
181.1981,-0.85
181.2981,-0.1
181.3981,-2.74
181.4981,-8.2
181.5981,-7.07
181.6981,-1.33
181.7981,2.16
181.8981,2.72
181.9981,1.97
182.0981,-0.85
182.1981,-3.77
182.2981,-2.27
182.3981,-0.76
182.4981,0.84
182.5981,1.03
182.6981,0.84
182.7981,-0.38
182.8981,-2.36
182.9981,-2.83
183.0981,-3.58
183.1981,-3.11
183.2981,-3.87
183.3981,-3.21
183.4981,-3.21
183.5981,-3.4
183.6981,-5.28
183.7981,-6.6
183.8981,-4.05
183.9981,-3.3
184.0981,-4.34
184.1981,-4.71
184.2981,-3.11
184.3981,-1.7
184.4981,-0.57
184.5981,-0.1
184.6981,0.65
184.7981,-0.57
184.8981,-0.85
184.9981,0.84
185.0981,1.4
185.1981,0.56
185.2981,-0.67
185.3981,-4.81
185.4981,-10.55
185.5981,-14.5
185.6981,-10.64
185.7981,-5.84
185.8981,-2.74
185.9981,-1.04
186.0981,-2.55
186.1981,-5.94
186.2981,-7.54
186.3981,-7.82
186.4981,-6.97
186.5981,-6.03
186.6981,-5.18
186.7981,-5.84
186.8981,-6.6
186.9981,-7.44
187.0981,-4.43
187.1981,-0.76
187.2981,0.46
187.3981,1.87
187.4981,1.5
187.5981,0.65
187.6981,0.27
187.7981,0.37
187.8981,1.31
187.9981,2.91
188.0981,3.0
188.1981,2.72
188.2981,2.82
188.3981,1.5
188.4981,1.87
188.5981,1.5
188.6981,0.84
188.7981,-0.29
188.8981,-2.36
188.9981,-4.05
189.0981,-2.74
189.1981,-2.83
189.2981,-3.02
189.3981,-4.34
189.4981,-11.02
189.5981,-22.88
189.6981,-7.16
189.7981,-3.49
189.8981,-2.55
189.9981,-3.02
190.0981,-4.24
190.1981,-4.62
190.2981,-2.36
190.3981,-1.42
190.4981,1.22
190.5981,3.0
190.6981,3.85
190.7981,2.63
190.8981,1.59
190.9981,-0.01
191.0981,-0.76
191.1981,-0.95
191.2981,-1.33
191.3981,-2.64
191.4981,-8.38
191.5981,-9.8
191.6981,-7.07
191.7981,-7.54
191.8981,-6.5
191.9981,-4.62
192.0981,-2.36
192.1981,-2.36
192.2981,-3.68
192.3981,-6.31
192.4981,-12.9
192.5981,-14.88
192.6981,-7.35
192.7981,-5.56
192.8981,-3.96
192.9981,-2.17
193.0981,-0.95
193.1981,-1.04
193.2981,-1.51
193.3981,-1.7
193.4981,-0.38
193.5981,0.93
193.6981,2.91
193.7981,2.53
193.8981,2.16
193.9981,2.16
194.0981,1.03
194.1981,0.93
194.2981,1.31
194.3981,1.59
194.4981,2.25
194.5981,1.31
194.6981,0.84
194.7981,-0.01
194.8981,0.27
194.9981,-3.68
195.0981,-7.16
195.1981,-7.35
195.2981,-3.77
195.3981,-3.21
195.4981,-3.11
195.5981,-5.47
195.6981,-11.96
195.7981,-8.95
195.8981,-2.55
195.9981,0.46
196.0981,1.87
196.1981,1.03
196.2981,-0.95
196.3981,-2.64
196.4981,-1.8
196.5981,0.18
196.6981,1.4
196.7981,1.69
196.8981,2.25
196.9981,1.87
197.0981,-0.85
197.1981,-2.64
197.2981,-6.13
197.3981,-8.95
197.4981,-12.53
197.5981,-10.36
197.6981,-6.03
197.7981,-4.15
197.8981,-4.24
197.9981,-6.6
198.0981,-6.88
198.1981,-2.45
198.2981,-2.08
198.3981,-2.17
198.4981,-2.93
198.5981,-4.34
198.6981,-3.87
198.7981,-1.98
198.8981,-1.98
198.9981,-1.33
199.0981,-0.76
199.1981,-0.57
199.2981,0.84
199.3981,1.78
199.4981,1.4
199.5981,0.84
199.6981,-1.7
199.7981,-1.33
199.8981,-0.67
199.9981,1.4
200.0981,1.31
200.1981,0.65
200.2981,-1.61
200.3981,-2.36
200.4981,-3.02
200.5981,-4.15
200.6981,-2.27
200.7981,-0.85
200.8981,-0.85
200.9981,-1.04
201.0981,-2.36
201.1981,-1.23
201.2981,-2.55
201.3981,-2.17
201.4981,-0.48
201.5981,0.46
201.6981,0.93
201.7981,0.46
201.8981,-0.48
201.9981,0.27
202.0981,0.09
202.1981,1.4
202.2981,1.22
202.3981,0.56
202.4981,-0.2
202.5981,-2.36
202.6981,-2.27
202.7981,-1.14
202.8981,0.18
202.9981,-1.51
203.0981,-5.28
203.1981,-9.33
203.2981,-11.21
203.3981,-14.5
203.4981,-16.2
203.5981,-12.24
203.6981,-9.04
203.7981,-7.91
203.8981,-4.9
203.9981,-0.95
204.0981,0.46
204.1981,0.74
204.2981,0.65
204.3981,1.12
204.4981,0.93
204.5981,0.74
204.6981,1.22
204.7981,2.06
204.8981,3.66
204.9981,3.0
205.0981,2.25
205.1981,1.87
205.2981,0.65
205.3981,-0.57
205.4981,-1.04
205.5981,0.56
205.6981,0.84
205.7981,0.46
205.8981,-1.42
205.9981,-5.09
206.0981,-9.8
206.1981,-8.38
206.2981,-6.03
206.3981,-4.62
206.4981,-5.37
206.5981,-5.94
206.6981,-5.47
206.7981,-3.11
206.8981,-0.85
206.9981,-1.23
207.0981,0.93
207.1981,0.18
207.2981,1.31
207.3981,2.34
207.4981,2.53
207.5981,3.19
207.6981,2.16
207.7981,2.72
207.8981,3.29
207.9981,3.1
208.0981,4.04
208.1981,2.82
208.2981,1.97
208.3981,1.59
208.4981,1.31
208.5981,-0.48
208.6981,-0.01
208.7981,-1.14
208.8981,-1.98
208.9981,-2.55
209.0981,-4.43
209.1981,-10.64
209.2981,-22.03
209.3981,-24.1
209.4981,-17.51
209.5981,-10.27
209.6981,-5.84
209.7981,-4.53
209.8981,-4.9
209.9981,-4.62
210.0981,-0.85
210.1981,2.06
210.2981,2.82
210.3981,3.38
210.4981,3.57
210.5981,2.82
210.6981,1.69
210.7981,1.78
210.8981,2.91
210.9981,3.1
211.0981,3.29
211.1981,3.47
211.2981,2.82
211.3981,1.59
211.4981,-0.29
211.5981,-1.33
211.6981,-1.42
211.7981,0.09
211.8981,-0.57
211.9981,-2.55
212.0981,-3.58
212.1981,-7.73
212.2981,-10.36
212.3981,-6.5
212.4981,-4.9
212.5981,-3.68
212.6981,-4.43
212.7981,-3.11
212.8981,-1.23
212.9981,-0.1
213.0981,1.22
213.1981,1.59
213.2981,1.03
213.3981,1.03
213.4981,1.69
213.5981,2.63
213.6981,2.44
213.7981,2.63
213.8981,1.5
213.9981,0.84
214.0981,1.12
214.1981,1.59
214.2981,1.69
214.3981,1.12
214.4981,0.74
214.5981,-1.14
214.6981,-2.74
214.7981,-3.49
214.8981,-4.05
214.9981,-3.96
215.0981,-5.84
215.1981,-8.67
215.2981,-13.09
215.3981,-19.3
215.4981,-18.17
215.5981,-11.21
215.6981,-6.22
215.7981,-1.61
215.8981,0.37
215.9981,-0.01
216.0981,-0.38
216.1981,0.37
216.2981,0.84
216.3981,2.91
216.4981,3.0
216.5981,2.72
216.6981,1.12
216.7981,0.84
216.8981,0.74
216.9981,0.46
217.0981,2.44
217.1981,1.69
217.2981,0.18
217.3981,-1.98
217.4981,-2.64
217.5981,-2.36
217.6981,-1.42
217.7981,-1.14
217.8981,-0.67
217.9981,-3.58
218.0981,-3.68
218.1981,-3.3
218.2981,-3.21
218.3981,-2.17
218.4981,-0.95
218.5981,-0.38
218.6981,-0.38
218.7981,-2.17
218.8981,-1.14
218.9981,-1.51
219.0981,0.37
219.1981,1.78
219.2981,1.97
219.3981,2.06
219.4981,0.93
219.5981,-1.23
219.6981,-0.67
219.7981,-0.01
219.8981,0.93
219.9981,0.27
220.0981,-0.85
220.1981,-2.55
220.2981,-4.34
220.3981,-4.15
220.4981,-2.45
220.5981,-1.89
220.6981,-1.33
220.7981,-1.14
220.8981,-1.8
220.9981,-1.8
221.0981,-3.77
221.1981,-5.65
221.2981,-11.02
221.3981,-13.56
221.4981,-9.51
221.5981,-4.81
221.6981,-1.7
221.7981,0.18
221.8981,0.46
221.9981,0.09
222.0981,-0.29
222.1981,0.65
222.2981,0.65
222.3981,0.46
222.4981,0.37
222.5981,0.93
222.6981,0.65
222.7981,-1.42
222.8981,-5.75
222.9981,-5.75
223.0981,-4.34
223.1981,-2.55
223.2981,-2.74
223.3981,-3.49
223.4981,-6.88
223.5981,-7.07
223.6981,-2.36
223.7981,1.4
223.8981,2.25
223.9981,1.59
224.0981,1.12
224.1981,-0.2
224.2981,0.27
224.3981,1.78
224.4981,3.0
224.5981,4.42
224.6981,4.32
224.7981,4.04
224.8981,3.76
224.9981,1.31
225.0981,-0.1
225.1981,0.65
225.2981,2.25
225.3981,0.74
225.4981,0.65
225.5981,0.27
225.6981,-1.61
225.7981,-4.81
225.8981,-6.88
225.9981,-5.37
226.0981,-4.43
226.1981,-4.71
226.2981,-5.18
226.3981,-7.35
226.4981,-5.65
226.5981,-3.68
226.6981,-0.67
226.7981,-0.2
226.8981,-1.51
226.9981,-1.61
227.0981,-1.8
227.1981,-4.24
227.2981,-9.14
227.3981,-10.74
227.4981,-6.22
227.5981,-2.83
227.6981,-0.01
227.7981,3.29
227.8981,3.85
227.9981,3.85
228.0981,2.72
228.1981,1.97
228.2981,0.27
228.3981,-0.95
228.4981,0.37
228.5981,-0.57
228.6981,-0.76
228.7981,-0.38
228.8981,-2.83
228.9981,-7.07
229.0981,-8.67
229.1981,-8.1
229.2981,-3.68
229.3981,-3.21
229.4981,-2.45
229.5981,-3.87
229.6981,-4.53
229.7981,-2.45
229.8981,-0.01
229.9981,1.97
230.0981,3.0
230.1981,3.0
230.2981,2.16
230.3981,2.63
230.4981,2.82
230.5981,3.29
230.6981,4.13
230.7981,4.13
230.8981,3.85
230.9981,3.1
231.0981,1.87
231.1981,1.4
231.2981,1.78
231.3981,1.87
231.4981,0.56
231.5981,-0.29
231.6981,-2.74
231.7981,-4.24
231.8981,-3.11
231.9981,-3.3
232.0981,-4.24
232.1981,-4.15
232.2981,-4.24
232.3981,-5.37
232.4981,-4.24
232.5981,-2.27
232.6981,0.56
232.7981,1.69
232.8981,-0.95
232.9981,-2.45
233.0981,-4.05
233.1981,-7.35
233.2981,-11.3
233.3981,-9.14
233.4981,-3.11
233.5981,-0.76
233.6981,0.65
233.7981,-0.57
233.8981,0.84
233.9981,2.25
234.0981,1.97
234.1981,3.19
234.2981,1.78
234.3981,0.09
234.4981,-2.93
234.5981,-4.81
234.6981,-3.4
234.7981,-1.98
234.8981,-2.27
234.9981,-2.36
235.0981,-2.83
235.1981,-2.08
235.2981,-1.89
235.3981,-2.93
235.4981,-1.14
235.5981,-0.2
235.6981,0.37
235.7981,1.03
235.8981,1.87
235.9981,2.16
236.0981,1.78
236.1981,1.97
236.2981,1.31
236.3981,1.4
236.4981,1.69
236.5981,2.16
236.6981,3.76
236.7981,3.19
236.8981,2.25
236.9981,0.18
237.0981,-1.04
237.1981,-2.83
237.2981,-0.57
237.3981,1.03
237.4981,1.97
237.5981,1.31
237.6981,-0.95
237.7981,-6.31
237.8981,-5.65
237.9981,-0.29
238.0981,3.19
238.1981,3.29
238.2981,1.97
238.3981,1.12
238.4981,-0.95
238.5981,-1.51
238.6981,1.12
238.7981,1.69
238.8981,1.87
238.9981,0.74
239.0981,-2.27
239.1981,-7.63
239.2981,-13.65
239.3981,-11.11
239.4981,-6.03
239.5981,-2.36
239.6981,0.09
239.7981,0.37
239.8981,-0.2
239.9981,-2.55
240.0981,-5.18
240.1981,-2.64
240.2981,-0.2
240.3981,0.74
240.4981,-0.01
240.5981,-1.33
240.6981,-0.38
240.7981,-0.29
240.8981,0.84
240.9981,0.27
241.0981,1.12
241.1981,2.53
241.2981,3.19
241.3981,2.91
241.4981,3.0
241.5981,2.63
241.6981,1.59
241.7981,1.5
241.8981,0.74
241.9981,2.72
242.0981,2.91
242.1981,2.72
242.2981,1.4
242.3981,1.12
