Frequency(MHz),Power(dBmV/100kHz)_20260203_084000
107.8981,-23.22
107.9981,-23.97
108.0981,-26.13
108.1981,-29.43
108.2981,-29.05
108.3981,-25.76
108.4981,-24.16
108.5981,-23.97
108.6981,-25.0
108.7981,-26.98
108.8981,-27.92
108.9981,-26.04
109.0981,-24.35
109.1981,-23.97
109.2981,-24.82
109.3981,-26.98
109.4981,-29.24
109.5981,-27.45
109.6981,-24.44
109.7981,-23.22
109.8981,-23.31
109.9981,-24.72
110.0981,-27.73
110.1981,-29.99
110.2981,-27.26
110.3981,-24.72
110.4981,-23.78
110.5981,-24.06
110.6981,-25.57
110.7981,-27.36
110.8981,-26.89
110.9981,-24.91
111.0981,-23.88
111.1981,-23.97
111.2981,-25.38
111.3981,-28.3
111.4981,-29.52
111.5981,-26.42
111.6981,-23.97
111.7981,-23.22
111.8981,-23.78
111.9981,-25.48
112.0981,-28.2
112.1981,-28.39
112.2981,-25.66
112.3981,-24.16
112.4981,-23.97
112.5981,-24.91
112.6981,-26.7
112.7981,-27.83
112.8981,-25.85
112.9981,-24.06
113.0981,-23.5
113.1981,-24.25
113.2981,-26.51
113.3981,-29.99
113.4981,-28.96
113.5981,-25.19
113.6981,-23.31
113.7981,-22.93
113.8981,-23.88
113.9981,-26.04
114.0981,-28.49
114.1981,-27.45
114.2981,-25.1
114.3981,-23.97
114.4981,-24.25
114.5981,-25.76
114.6981,-27.83
114.7981,-27.64
114.8981,-25.1
114.9981,-23.69
115.0981,-23.59
115.1981,-24.72
115.2981,-27.26
115.3981,-29.43
115.4981,-26.79
115.5981,-24.16
115.6981,-23.22
115.7981,-23.5
115.8981,-25.0
115.9981,-27.55
116.0981,-28.11
116.1981,-25.76
116.2981,-24.16
116.3981,-24.06
116.4981,-25.19
116.5981,-27.92
116.6981,-29.52
116.7981,-25.95
116.8981,-23.22
116.9981,-22.18
117.0981,-22.46
117.1981,-24.06
117.2981,-27.55
117.3981,-31.22
117.4981,-27.17
117.5981,-24.16
117.6981,-23.22
117.7981,-23.69
117.8981,-25.29
117.9981,-27.83
118.0981,-27.73
118.1981,-25.48
118.2981,-24.06
118.3981,-23.97
118.4981,-25.1
118.5981,-27.36
118.6981,-28.3
118.7981,-25.57
118.8981,-23.59
118.9981,-22.93
119.0981,-23.69
119.1981,-25.76
119.2981,-29.52
119.3981,-29.24
119.4981,-25.57
119.5981,-23.88
119.6981,-23.78
119.7981,-24.72
119.8981,-26.79
119.9981,-28.02
120.0981,-26.04
120.1981,-24.16
120.2981,-23.59
120.3981,-24.44
120.4981,-26.51
120.5981,-28.86
120.6981,-27.17
120.7981,-24.25
120.8981,-22.84
120.9981,-22.84
121.0981,-24.16
121.1981,-27.08
121.2981,-30.28
121.3981,-27.64
121.4981,-24.63
121.5981,-23.59
121.6981,-23.69
121.7981,-25.1
121.8981,-27.17
121.9981,-27.26
122.0981,-25.19
122.1981,-23.97
122.2981,-23.88
122.3981,-25.1
122.4981,-27.92
122.5981,-29.24
122.6981,-26.13
122.7981,-23.69
122.8981,-22.93
122.9981,-23.4
123.0981,-25.1
123.1981,-28.02
123.2981,-28.86
123.3981,-25.95
123.4981,-24.06
123.5981,-23.78
123.6981,-24.72
123.7981,-26.79
123.8981,-28.2
123.9981,-26.23
124.0981,-24.25
124.1981,-23.5
124.2981,-24.16
124.3981,-26.6
124.4981,-30.56
124.5981,-29.05
124.6981,-25.0
124.7981,-23.03
124.8981,-22.56
124.9981,-23.4
125.0981,-25.76
125.1981,-29.05
125.2981,-28.2
125.3981,-25.48
125.4981,-24.06
125.5981,-24.06
125.6981,-25.48
125.7981,-27.92
125.8981,-28.02
125.9981,-25.38
126.0981,-23.97
126.1981,-23.78
126.2981,-24.72
126.3981,-27.45
126.4981,-30.37
126.5981,-27.26
126.6981,-23.97
126.7981,-22.84
126.8981,-22.93
126.9981,-24.35
127.0981,-27.08
127.1981,-28.86
127.2981,-26.6
127.3981,-24.25
127.4981,-23.78
127.5981,-24.82
127.6981,-27.08
127.7981,-29.05
127.8981,-26.6
127.9981,-23.69
128.0981,-22.75
128.1981,-19.73
128.2981,-21.62
128.3981,-28.49
128.4981,-29.9
128.5981,-25.95
128.6981,-22.84
128.7981,-18.13
128.8981,-18.51
128.9981,-20.39
129.0981,-22.18
129.1981,-23.03
129.2981,-20.77
129.3981,-19.26
129.4981,-18.98
129.5981,-17.85
129.6981,-20.39
129.7981,-19.92
129.8981,-17.66
129.9981,-16.63
130.0981,-17.85
130.1981,-18.32
130.2981,-18.98
130.3981,-22.37
130.4981,-20.96
130.5981,-15.78
130.6981,-14.93
130.7981,-14.56
130.8981,-16.91
130.9981,-18.6
131.0981,-19.73
131.1981,-15.69
131.2981,-13.24
131.3981,-12.2
131.4981,-13.05
131.5981,-14.75
131.6981,-16.72
131.7981,-13.71
131.8981,-7.78
131.9981,0.88
132.0981,4.92
132.1981,6.05
132.2981,3.98
132.3981,0.03
132.4981,5.21
132.5981,7.94
132.6981,9.35
132.7981,9.82
132.8981,6.24
132.9981,5.11
133.0981,4.83
133.1981,6.71
133.2981,8.12
133.3981,8.03
133.4981,6.05
133.5981,2.76
133.6981,-0.16
133.7981,2.19
133.8981,4.55
133.9981,4.64
134.0981,4.08
134.1981,0.97
134.2981,-3.08
134.3981,-3.92
134.4981,-1.57
134.5981,0.78
134.6981,0.5
134.7981,0.22
134.8981,-3.64
134.9981,-5.8
135.0981,-4.3
135.1981,-1.95
135.2981,-1.1
135.3981,-1.29
135.4981,-2.79
135.5981,-7.4
135.6981,-5.99
135.7981,-1.85
135.8981,0.69
135.9981,1.91
136.0981,1.16
136.1981,-2.7
136.2981,-5.9
136.3981,-3.64
136.4981,-0.35
136.5981,2.29
136.6981,1.63
136.7981,-0.25
136.8981,-2.6
136.9981,-1.95
137.0981,0.41
137.1981,2.19
137.2981,1.91
137.3981,0.5
137.4981,-3.92
137.5981,-9.85
137.6981,-10.23
137.7981,-8.72
137.8981,-7.59
137.9981,-3.73
138.0981,-2.42
138.1981,-4.39
138.2981,-5.33
138.3981,-0.91
138.4981,1.91
138.5981,1.82
138.6981,0.78
138.7981,0.03
138.8981,-3.83
138.9981,-1.29
139.0981,1.44
139.1981,3.32
139.2981,2.19
139.3981,0.97
139.4981,-3.83
139.5981,-5.43
139.6981,-0.82
139.7981,2.85
139.8981,3.23
139.9981,1.72
140.0981,-0.53
140.1981,-4.11
140.2981,-3.92
140.3981,-0.72
140.4981,1.44
140.5981,1.07
140.6981,-0.72
140.7981,-1.95
140.8981,-3.36
140.9981,0.5
141.0981,2.57
141.1981,2.95
141.2981,1.16
141.3981,-1.01
141.4981,-5.9
141.5981,-4.86
141.6981,-0.44
141.7981,2.48
141.8981,1.44
141.9981,0.22
142.0981,-2.13
142.1981,-4.77
142.2981,-1.95
142.3981,0.12
142.4981,0.69
142.5981,0.31
142.6981,-1.48
142.7981,-4.2
142.8981,-2.13
142.9981,0.5
143.0981,2.38
143.1981,2.19
143.2981,1.44
143.3981,-3.55
143.4981,-11.26
143.5981,-8.35
143.6981,-7.88
143.7981,-10.6
143.8981,-8.44
143.9981,-6.18
144.0981,-7.03
144.1981,-6.09
144.2981,-0.06
144.3981,1.82
144.4981,2.19
144.5981,0.69
144.6981,-2.89
144.7981,-4.58
144.8981,-0.91
144.9981,1.91
145.0981,2.29
145.1981,2.29
145.2981,0.12
145.3981,-4.02
145.4981,-6.28
145.5981,-0.72
145.6981,1.63
145.7981,2.85
145.8981,1.54
145.9981,-0.25
146.0981,-4.2
146.1981,-2.04
146.2981,0.5
146.3981,2.1
146.4981,1.35
146.5981,-1.57
146.6981,-5.43
146.7981,-3.73
146.8981,-0.35
146.9981,2.1
147.0981,2.57
147.1981,1.82
147.2981,-0.63
147.3981,-4.77
147.4981,-2.89
147.5981,-0.06
147.6981,1.72
147.7981,1.72
147.8981,-0.82
147.9981,-3.36
148.0981,-5.33
148.1981,0.03
148.2981,1.54
148.3981,2.29
148.4981,1.44
148.5981,-2.23
148.6981,-6.28
148.7981,-2.98
148.8981,1.35
148.9981,2.85
149.0981,2.76
149.1981,1.25
149.2981,-2.98
149.3981,-7.69
149.4981,-6.18
149.5981,-5.9
149.6981,-8.53
149.7981,-11.64
149.8981,-10.23
149.9981,-9.48
150.0981,-5.05
150.1981,-1.1
150.2981,1.63
150.3981,1.54
150.4981,-0.25
150.5981,-3.64
150.6981,-5.71
150.7981,-0.82
150.8981,0.88
150.9981,2.29
151.0981,2.48
151.1981,-0.06
151.2981,-4.58
151.3981,-4.3
151.4981,-0.53
151.5981,2.1
151.6981,1.63
151.7981,0.12
151.8981,-1.95
151.9981,-4.2
152.0981,-0.72
152.1981,2.67
152.2981,2.57
152.3981,1.35
152.4981,-2.42
152.5981,-5.99
152.6981,-3.55
152.7981,0.31
152.8981,2.1
152.9981,2.76
153.0981,0.88
153.1981,-1.76
153.2981,-5.05
153.3981,-2.32
153.4981,0.69
153.5981,1.35
153.6981,1.35
153.7981,-0.63
153.8981,-4.39
153.9981,-3.26
154.0981,0.59
154.1981,2.19
154.2981,1.54
154.3981,0.5
154.4981,-2.13
154.5981,-7.97
154.6981,-1.85
154.7981,1.25
154.8981,1.72
154.9981,2.01
155.0981,0.31
155.1981,-4.11
155.2981,-5.62
155.3981,-2.6
155.4981,-3.45
155.5981,-6.37
155.6981,-11.92
155.7981,-15.31
155.8981,-13.24
155.9981,-5.9
156.0981,-0.91
156.1981,1.82
156.2981,2.1
156.3981,0.22
156.4981,-4.96
156.5981,-6.37
156.6981,-0.82
156.7981,2.1
156.8981,2.48
156.9981,2.38
157.0981,-0.25
157.1981,-4.2
157.2981,-3.73
157.3981,0.97
157.4981,2.67
157.5981,1.16
157.6981,0.31
157.7981,-6.18
157.8981,-4.77
157.9981,-0.06
158.0981,2.67
158.1981,3.42
158.2981,1.72
158.3981,-2.04
158.4981,-6.84
158.5981,-4.3
158.6981,-0.25
158.7981,2.1
158.8981,1.72
158.9981,-0.35
159.0981,-2.23
159.1981,-4.3
159.2981,-2.04
159.3981,1.54
159.4981,1.72
159.5981,0.88
159.6981,-3.36
159.7981,-7.59
159.8981,-2.13
159.9981,1.72
160.0981,2.95
160.1981,2.19
160.2981,0.69
160.3981,-3.26
160.4981,-6.65
160.5981,-1.76
160.6981,0.88
160.7981,2.1
160.8981,1.54
160.9981,-1.57
161.0981,-5.99
161.1981,-3.08
161.2981,-1.1
161.3981,-0.82
161.4981,-3.45
161.5981,-9.1
161.6981,-18.89
161.7981,-17.29
161.8981,-7.4
161.9981,-2.04
162.0981,1.07
162.1981,1.54
162.2981,-0.91
162.3981,-5.9
162.4981,-5.33
162.5981,-0.63
162.6981,1.44
162.7981,2.19
162.8981,0.22
162.9981,-2.79
163.0981,-4.58
163.1981,0.5
163.2981,2.01
163.3981,2.95
163.4981,0.97
163.5981,-0.91
163.6981,-6.93
163.7981,-4.2
163.8981,-0.06
163.9981,2.57
164.0981,3.23
164.1981,1.54
164.2981,-1.57
164.3981,-6.18
164.4981,-3.17
164.5981,0.88
164.6981,1.82
164.7981,1.82
164.8981,-0.44
164.9981,-4.49
165.0981,-3.92
165.1981,0.41
165.2981,2.76
165.3981,2.85
165.4981,1.54
165.5981,-3.55
165.6981,-9.85
165.7981,-3.08
165.8981,1.54
165.9981,3.61
166.0981,1.72
166.1981,-0.16
166.2981,-4.58
166.3981,-4.77
166.4981,-0.63
166.5981,1.07
166.6981,1.25
166.7981,0.12
166.8981,-3.45
166.9981,-6.56
167.0981,-2.13
167.1981,1.25
167.2981,0.97
167.3981,-1.66
167.4981,-6.84
167.5981,-17.57
167.6981,-20.77
167.7981,-10.23
167.8981,-3.92
167.9981,0.5
168.0981,0.22
168.1981,-1.38
168.2981,-5.99
168.3981,-2.42
168.4981,0.69
168.5981,2.01
168.6981,1.35
168.7981,-0.35
168.8981,-5.62
168.9981,-5.71
169.0981,-0.06
169.1981,2.57
169.2981,2.67
169.3981,2.29
169.4981,-0.72
169.5981,-8.53
169.6981,-4.2
169.7981,0.41
169.8981,2.85
169.9981,2.38
170.0981,0.5
170.1981,-3.36
170.2981,-5.24
170.3981,-0.82
170.4981,1.44
170.5981,2.1
170.6981,0.88
170.7981,-3.17
170.8981,-8.44
170.9981,-3.36
171.0981,1.25
171.1981,2.19
171.2981,2.19
171.3981,0.97
171.4981,-4.3
171.5981,-8.72
171.6981,-1.66
171.7981,1.07
171.8981,3.04
171.9981,2.38
172.0981,-1.95
172.1981,-5.71
172.2981,-3.92
172.3981,-0.35
172.4981,1.35
172.5981,2.85
172.6981,0.12
172.7981,-6.09
172.8981,-6.09
172.9981,-0.91
173.0981,1.91
173.1981,1.91
173.2981,0.69
173.3981,-4.39
173.4981,-13.71
173.5981,-18.42
173.6981,-13.33
173.7981,-5.9
173.8981,-2.7
173.9981,-1.1
174.0981,-4.86
174.1981,-6.09
174.2981,-1.57
174.3981,1.82
174.4981,2.95
174.5981,1.91
174.6981,-1.38
174.7981,-7.69
174.8981,-3.92
174.9981,0.31
175.0981,1.82
175.1981,2.38
175.2981,1.07
175.3981,-3.08
175.4981,-8.53
175.5981,-3.64
175.6981,0.41
175.7981,2.01
175.8981,1.63
175.9981,-0.82
176.0981,-5.15
176.1981,-2.98
176.2981,0.88
176.3981,2.29
176.4981,2.57
176.5981,0.31
176.6981,-4.2
176.7981,-10.13
176.8981,-1.95
176.9981,1.54
177.0981,3.04
177.1981,2.01
177.2981,-0.44
177.3981,-5.15
177.4981,-6.18
177.5981,-1.01
177.6981,1.44
177.7981,1.72
177.8981,0.31
177.9981,-3.64
178.0981,-6.75
178.1981,-1.48
178.2981,2.01
178.3981,3.14
178.4981,1.91
178.5981,-0.25
178.6981,-7.78
178.7981,-7.97
178.8981,-0.44
178.9981,1.72
179.0981,2.38
179.1981,0.78
179.2981,-4.11
179.3981,-11.17
179.4981,-12.02
179.5981,-12.68
179.6981,-9.19
179.7981,-5.24
179.8981,-5.15
179.9981,-9.29
180.0981,-6.37
180.1981,0.41
180.2981,2.67
180.3981,2.76
180.4981,1.25
180.5981,-3.08
180.6981,-10.6
180.7981,-2.79
180.8981,1.54
180.9981,3.32
181.0981,2.57
181.1981,0.22
181.2981,-4.11
181.3981,-6.75
181.4981,-1.29
181.5981,1.16
181.6981,1.35
181.7981,0.69
181.8981,-2.79
181.9981,-9.1
182.0981,-2.98
182.1981,1.35
182.2981,2.57
182.3981,3.14
182.4981,0.22
182.5981,-4.39
182.6981,-9.1
182.7981,-1.85
182.8981,1.91
182.9981,2.67
183.0981,1.54
183.1981,-1.48
183.2981,-7.4
183.3981,-4.3
183.4981,-0.06
183.5981,0.69
183.6981,2.01
183.7981,0.22
183.8981,-6.65
183.9981,-6.93
184.0981,-0.06
184.1981,2.85
184.2981,2.85
184.3981,2.85
184.4981,-1.01
184.5981,-7.59
184.6981,-5.43
184.7981,0.41
184.8981,1.16
184.9981,1.25
185.0981,0.31
185.1981,-6.56
185.2981,-10.04
185.3981,-7.59
185.4981,-10.13
185.5981,-12.02
185.6981,-8.53
185.7981,-8.16
185.8981,-13.8
185.9981,-5.9
186.0981,0.31
186.1981,2.67
186.2981,3.42
186.3981,1.16
186.4981,-3.55
186.5981,-9.0
186.6981,-2.51
186.7981,1.16
186.8981,1.82
186.9981,1.44
187.0981,-1.48
187.1981,-6.65
187.2981,-3.45
187.3981,0.41
187.4981,2.01
187.5981,2.29
187.6981,0.03
187.7981,-5.99
187.8981,-9.85
187.9981,-1.76
188.0981,2.1
188.1981,2.38
188.2981,2.38
188.3981,-0.06
188.4981,-6.46
188.5981,-5.99
188.6981,-1.01
188.7981,1.25
188.8981,2.1
188.9981,-0.16
189.0981,-3.92
189.1981,-5.99
189.2981,-1.01
189.3981,2.1
189.4981,3.32
189.5981,1.07
189.6981,-2.6
189.7981,-9.85
189.8981,-5.52
189.9981,-0.06
190.0981,1.82
190.1981,2.19
190.2981,1.35
190.3981,-2.23
190.4981,-7.97
190.5981,-3.92
190.6981,-0.82
190.7981,1.91
190.8981,1.44
190.9981,-1.48
191.0981,-8.16
191.1981,-7.5
191.2981,-4.68
191.3981,-4.77
191.4981,-9.19
191.5981,-11.26
191.6981,-12.2
191.7981,-17.1
191.8981,-5.24
191.9981,-1.19
192.0981,2.57
192.1981,2.1
192.2981,0.03
192.3981,-4.77
192.4981,-5.71
192.5981,-0.91
192.6981,1.82
192.7981,1.54
192.8981,0.03
192.9981,-4.77
193.0981,-9.48
193.1981,-2.79
193.2981,2.29
193.3981,3.51
193.4981,2.1
193.5981,0.03
193.6981,-6.84
193.7981,-7.59
193.8981,-0.63
193.9981,1.07
194.0981,1.82
194.1981,1.35
194.2981,-1.66
194.3981,-7.59
194.4981,-4.2
194.5981,-0.06
194.6981,1.63
194.7981,0.78
194.8981,-2.23
194.9981,-9.1
195.0981,-5.43
195.1981,0.12
195.2981,2.85
195.3981,3.32
195.4981,1.82
195.5981,-1.66
195.6981,-9.95
195.7981,-5.62
195.8981,-0.16
195.9981,2.1
196.0981,2.1
196.1981,-0.82
196.2981,-5.62
196.3981,-7.22
196.4981,-1.48
196.5981,1.54
196.6981,2.67
196.7981,1.07
196.8981,-3.17
196.9981,-11.64
197.0981,-4.49
197.1981,-1.38
197.2981,-2.42
197.3981,-5.99
197.4981,-12.39
197.5981,-16.35
197.6981,-16.91
197.7981,-6.93
197.8981,-1.01
197.9981,1.54
198.0981,0.22
198.1981,-2.42
198.2981,-7.97
198.3981,-3.08
198.4981,0.78
198.5981,1.91
198.6981,2.19
198.7981,-0.72
198.8981,-5.71
198.9981,-9.85
199.0981,-0.91
199.1981,1.54
199.2981,2.19
199.3981,1.91
199.4981,-0.72
199.5981,-9.48
199.6981,-6.93
199.7981,-1.29
199.8981,1.91
199.9981,1.44
200.0981,1.07
200.1981,-4.39
200.2981,-6.93
200.3981,-1.57
200.4981,1.54
200.5981,2.29
200.6981,1.54
200.7981,-2.32
200.8981,-12.49
200.9981,-5.99
201.0981,0.12
201.1981,2.29
201.2981,2.29
201.3981,1.16
201.4981,-2.42
201.5981,-10.13
201.6981,-2.79
201.7981,0.5
201.8981,1.35
201.9981,1.44
202.0981,-1.57
202.1981,-7.97
202.2981,-4.96
202.3981,-0.06
202.4981,2.1
202.5981,2.38
202.6981,0.69
202.7981,-4.58
202.8981,-14.46
202.9981,-2.6
203.0981,-0.82
203.1981,-0.82
203.2981,-3.64
203.3981,-10.79
203.4981,-20.02
203.5981,-15.97
203.6981,-6.93
203.7981,-1.66
203.8981,0.5
203.9981,-1.19
204.0981,-6.09
204.1981,-9.19
204.2981,-1.95
204.3981,1.35
204.4981,2.85
204.5981,1.82
204.6981,-0.91
204.7981,-8.82
204.8981,-7.88
204.9981,-0.72
205.0981,1.91
205.1981,2.76
205.2981,1.07
205.3981,-2.7
205.4981,-8.91
205.5981,-3.17
205.6981,-0.53
205.7981,1.07
205.8981,1.35
205.9981,-2.79
206.0981,-10.23
206.1981,-5.8
206.2981,-0.63
206.3981,2.19
206.4981,2.85
206.5981,2.85
206.6981,-1.66
206.7981,-12.96
206.8981,-4.49
206.9981,-0.53
207.0981,1.91
207.1981,1.16
207.2981,-0.16
207.3981,-5.9
207.4981,-6.75
207.5981,-0.82
207.6981,1.72
207.7981,1.63
207.8981,1.25
207.9981,-4.49
208.0981,-11.17
208.1981,-2.6
208.2981,2.48
208.3981,2.67
208.4981,1.72
208.5981,0.88
208.6981,-6.37
208.7981,-10.42
208.8981,-1.95
208.9981,0.31
209.0981,0.12
209.1981,-2.13
209.2981,-10.04
209.3981,-20.2
209.4981,-16.16
209.5981,-6.93
209.6981,-2.32
209.7981,-1.38
209.8981,-2.04
209.9981,-8.25
210.0981,-8.63
210.1981,-0.63
210.2981,2.01
210.3981,3.14
210.4981,1.72
210.5981,-1.85
210.6981,-9.76
210.7981,-7.12
210.8981,-0.72
210.9981,1.07
211.0981,1.82
211.1981,-1.38
211.2981,-5.71
211.3981,-6.56
211.4981,-0.72
211.5981,1.16
211.6981,2.57
211.7981,0.59
211.8981,-4.02
211.9981,-12.68
212.0981,-4.39
212.1981,0.69
212.2981,2.38
212.3981,2.76
212.4981,0.69
212.5981,-4.2
212.6981,-9.38
212.7981,-3.36
212.8981,0.5
212.9981,1.16
213.0981,1.35
213.1981,-3.64
213.2981,-9.0
213.3981,-5.15
213.4981,0.31
213.5981,2.67
213.6981,2.19
213.7981,-0.06
213.8981,-6.37
213.9981,-11.64
214.0981,-2.13
214.1981,1.54
214.2981,2.85
214.3981,1.44
214.4981,-1.29
214.5981,-7.03
214.6981,-6.46
214.7981,-1.19
214.8981,0.5
214.9981,0.97
215.0981,-3.36
215.1981,-11.55
215.2981,-15.97
215.3981,-14.84
215.4981,-10.79
215.5981,-3.92
215.6981,-2.42
215.7981,-4.86
215.8981,-11.73
215.9981,-6.84
216.0981,-0.72
216.1981,1.82
216.2981,1.72
216.3981,0.97
216.4981,-4.11
216.5981,-8.63
216.6981,-2.7
216.7981,0.12
216.8981,1.07
216.9981,-0.06
217.0981,-3.83
217.1981,-11.08
217.2981,-4.11
217.3981,0.31
217.4981,2.48
217.5981,3.32
217.6981,0.22
217.7981,-4.86
217.8981,-12.3
217.9981,-3.83
218.0981,0.5
218.1981,1.63
218.2981,1.16
218.3981,-2.6
218.4981,-8.44
218.5981,-6.28
218.6981,-1.66
218.7981,0.69
218.8981,1.25
218.9981,-0.44
219.0981,-6.37
219.1981,-9.85
219.2981,-1.66
219.3981,2.01
219.4981,3.32
219.5981,2.1
219.6981,0.31
219.7981,-6.75
219.8981,-9.66
219.9981,-1.66
220.0981,1.54
220.1981,2.1
220.2981,-0.16
220.3981,-4.3
220.4981,-8.44
220.5981,-3.55
220.6981,0.22
220.7981,2.19
220.8981,0.69
220.9981,-4.2
221.0981,-14.56
221.1981,-12.2
221.2981,-9.29
221.3981,-11.55
221.4981,-7.69
221.5981,-5.62
221.6981,-5.9
221.7981,-13.43
221.8981,-6.18
221.9981,-0.72
222.0981,1.54
222.1981,1.35
222.2981,-2.04
222.3981,-7.69
222.4981,-6.28
222.5981,0.12
222.6981,1.72
222.7981,0.97
222.8981,-0.16
222.9981,-4.58
223.0981,-13.52
223.1981,-3.73
223.2981,0.69
223.3981,1.91
223.4981,2.67
223.5981,0.5
223.6981,-6.56
223.7981,-9.66
223.8981,-2.7
223.9981,0.88
224.0981,2.01
224.1981,-0.25
224.2981,-4.11
224.3981,-8.16
224.4981,-2.6
224.5981,1.16
224.6981,2.48
224.7981,1.72
224.8981,-1.1
224.9981,-9.19
225.0981,-9.38
225.1981,-0.91
225.2981,2.19
225.3981,2.29
225.4981,0.69
225.5981,-2.42
225.6981,-8.82
225.7981,-4.02
225.8981,0.41
225.9981,1.44
226.0981,1.35
226.1981,-1.48
226.2981,-8.53
226.3981,-7.12
226.4981,-1.19
226.5981,1.72
226.6981,2.76
226.7981,0.88
226.8981,-5.62
226.9981,-17.19
227.0981,-7.88
227.1981,-6.56
227.2981,-9.76
227.3981,-11.55
227.4981,-8.63
227.5981,-10.04
227.6981,-10.42
227.7981,-2.89
227.8981,-0.53
227.9981,0.97
228.0981,0.03
228.1981,-4.3
228.2981,-11.26
228.3981,-4.02
228.4981,-0.06
228.5981,2.57
228.6981,1.63
228.7981,-0.06
228.8981,-7.22
228.9981,-10.6
229.0981,-1.76
229.1981,1.35
229.2981,2.1
229.3981,1.54
229.4981,-2.13
229.5981,-9.1
229.6981,-5.52
229.7981,-0.53
229.8981,1.72
229.9981,0.88
230.0981,-1.57
230.1981,-7.59
230.2981,-9.19
230.3981,-0.82
230.4981,0.88
230.5981,2.19
230.6981,1.35
230.7981,-2.32
230.8981,-10.13
230.9981,-7.22
231.0981,-0.53
231.1981,1.72
231.2981,0.88
231.3981,-0.63
231.4981,-5.05
231.5981,-7.97
231.6981,-2.04
231.7981,1.16
231.8981,1.25
231.9981,-0.16
232.0981,-3.36
232.1981,-12.39
232.2981,-4.49
232.3981,0.41
232.4981,2.48
232.5981,1.91
232.6981,0.5
232.7981,-4.86
232.8981,-12.86
232.9981,-5.33
233.0981,-3.92
233.1981,-6.56
233.2981,-10.79
233.3981,-13.62
233.4981,-15.31
233.5981,-10.89
233.6981,-3.08
233.7981,0.78
233.8981,1.63
233.9981,-0.72
234.0981,-6.28
234.1981,-11.64
234.2981,-3.64
234.3981,0.59
234.4981,1.91
234.5981,1.44
234.6981,-1.57
234.7981,-9.1
234.8981,-6.56
234.9981,-0.44
235.0981,0.78
235.1981,1.82
235.2981,-0.06
235.3981,-4.39
235.4981,-7.69
235.5981,-1.85
235.6981,0.5
235.7981,1.54
235.8981,0.22
235.9981,-2.98
236.0981,-13.33
236.1981,-5.52
236.2981,0.12
236.3981,1.82
236.4981,2.85
236.5981,0.78
236.6981,-2.79
236.7981,-8.44
236.8981,-3.26
236.9981,0.12
237.0981,0.97
237.1981,-0.16
237.2981,-2.23
237.3981,-8.91
237.4981,-5.52
237.5981,-0.72
237.6981,1.35
237.7981,2.01
237.8981,0.41
237.9981,-4.86
238.0981,-15.4
238.1981,-3.73
238.2981,0.78
238.3981,2.48
238.4981,1.91
238.5981,-0.44
238.6981,-6.93
238.7981,-7.12
238.8981,-3.92
238.9981,-3.92
239.0981,-5.05
239.1981,-10.42
239.2981,-19.17
239.3981,-19.73
239.4981,-8.25
239.5981,-2.32
239.6981,0.5
239.7981,0.97
239.8981,-1.48
239.9981,-8.16
240.0981,-8.72
240.1981,-1.76
240.2981,0.59
240.3981,1.63
240.4981,0.88
240.5981,-3.64
240.6981,-8.91
240.7981,-4.02
240.8981,-0.16
240.9981,1.07
241.0981,-0.16
241.1981,-3.83
241.2981,-9.85
241.3981,-4.77
241.4981,-0.25
241.5981,1.63
241.6981,2.57
241.7981,1.72
241.8981,-3.26
241.9981,-12.49
242.0981,-4.68
242.1981,-0.44
242.2981,1.25
242.3981,2.01
242.4981,-1.1
242.5981,-7.12
