Frequency(MHz),Power(dBmV/100kHz)_20260203_064235
107.8981,-22.45
107.9981,-21.23
108.0981,-14.55
108.1981,-8.62
108.2981,-4.85
108.3981,-2.88
108.4981,-0.71
108.5981,-1.84
108.6981,-4.2
108.7981,-7.58
108.8981,-12.29
108.9981,-9.65
109.0981,-4.57
109.1981,-2.03
109.2981,0.98
109.3981,1.92
109.4981,0.79
109.5981,0.98
109.6981,-0.24
109.7981,-0.81
109.8981,-1.56
109.9981,-2.41
110.0981,-3.91
110.1981,-4.38
110.2981,-5.98
110.3981,-6.83
110.4981,-7.68
110.5981,-8.24
110.6981,-6.55
110.7981,-2.78
110.8981,-0.62
110.9981,1.17
111.0981,2.11
111.1981,1.54
111.2981,1.83
111.3981,0.6
111.4981,-1.84
111.5981,-4.85
111.6981,-7.3
111.7981,-6.55
111.8981,-4.38
111.9981,-2.78
112.0981,-2.03
112.1981,-2.22
112.2981,-2.88
112.3981,-2.6
112.4981,-4.38
112.5981,-4.29
112.6981,-3.73
112.7981,-3.73
112.8981,-2.97
112.9981,-3.07
113.0981,-2.78
113.1981,-3.82
113.2981,-3.35
113.3981,-2.88
113.4981,-2.22
113.5981,-2.31
113.6981,-3.63
113.7981,-5.7
113.8981,-11.44
113.9981,-17.37
114.0981,-20.67
114.1981,-24.71
114.2981,-29.61
114.3981,-32.24
114.4981,-28.76
114.5981,-28.29
114.6981,-26.22
114.7981,-25.47
114.8981,-25.0
114.9981,-25.09
115.0981,-25.56
115.1981,-26.03
115.2981,-26.5
115.3981,-26.5
115.4981,-26.6
115.5981,-26.78
115.6981,-27.63
115.7981,-29.14
115.8981,-31.58
115.9981,-34.41
116.0981,-33.18
116.1981,-29.8
116.2981,-27.25
116.3981,-25.84
116.4981,-25.09
116.5981,-25.18
116.6981,-25.84
116.7981,-27.44
116.8981,-29.51
116.9981,-31.58
117.0981,-30.83
117.1981,-28.85
117.2981,-26.88
117.3981,-25.47
117.4981,-24.9
117.5981,-24.9
117.6981,-25.56
117.7981,-26.69
117.8981,-27.82
117.9981,-28.76
118.0981,-29.14
118.1981,-29.04
118.2981,-28.76
118.3981,-29.33
118.4981,-30.45
118.5981,-31.49
118.6981,-31.02
118.7981,-28.85
118.8981,-26.41
118.9981,-24.34
119.0981,-23.11
119.1981,-22.64
119.2981,-21.7
119.3981,-18.97
119.4981,-20.38
119.5981,-22.93
119.6981,-26.41
119.7981,-27.25
119.8981,-25.09
119.9981,-17.28
120.0981,-9.47
120.1981,-4.76
120.2981,-3.35
120.3981,-1.47
120.4981,-0.53
120.5981,-1.28
120.6981,-0.81
120.7981,-0.71
120.8981,-0.9
120.9981,-0.81
121.0981,-0.34
121.1981,-2.03
121.2981,-3.73
121.3981,-4.76
121.4981,-5.61
121.5981,-3.16
121.6981,-2.03
121.7981,0.32
121.8981,0.7
121.9981,0.79
122.0981,0.23
122.1981,-1.94
122.2981,-6.45
122.3981,-9.84
122.4981,-8.05
122.5981,-4.57
122.6981,-0.53
122.7981,-0.34
122.8981,0.98
122.9981,0.7
123.0981,0.7
123.1981,0.04
123.2981,-0.71
123.3981,-1.47
123.4981,-2.31
123.5981,-2.41
123.6981,-2.88
123.7981,-2.88
123.8981,-5.23
123.9981,-7.58
124.0981,-9.18
124.1981,-6.74
124.2981,-2.88
124.3981,0.13
124.4981,2.02
124.5981,2.58
124.6981,2.02
124.7981,0.89
124.8981,-0.06
124.9981,-1.84
125.0981,-4.95
125.1981,-6.36
125.2981,-5.98
125.3981,-4.1
125.4981,-3.54
125.5981,-5.04
125.6981,-7.4
125.7981,-10.97
125.8981,-16.53
125.9981,-14.36
126.0981,-8.71
126.1981,-6.08
126.2981,-4.38
126.3981,-2.5
126.4981,-2.97
126.5981,-3.35
126.6981,-3.44
126.7981,-3.35
126.8981,-2.5
126.9981,-0.53
127.0981,-0.24
127.1981,1.45
127.2981,1.17
127.3981,0.98
127.4981,0.13
127.5981,-1.84
127.6981,-4.67
127.7981,-9.09
127.8981,-12.85
127.9981,-9.28
128.0981,-4.95
128.1981,-2.22
128.2981,-1.47
128.3981,-1.28
128.4981,-0.81
128.5981,-0.34
128.6981,-0.24
128.7981,0.32
128.8981,-0.15
128.9981,-0.53
129.0981,-0.9
129.1981,-2.13
129.2981,-2.78
129.3981,-6.74
129.4981,-8.81
129.5981,-6.17
129.6981,-3.82
129.7981,-1.66
129.8981,0.23
129.9981,0.6
130.0981,0.04
130.1981,-0.71
130.2981,-1.47
130.3981,-3.63
130.4981,-5.42
130.5981,-5.33
130.6981,-4.38
130.7981,-0.81
130.8981,-1.66
130.9981,-1.18
131.0981,-1.94
131.1981,-1.37
131.2981,-2.03
131.3981,-2.5
131.4981,-3.73
131.5981,-6.64
131.6981,-9.0
131.7981,-12.29
131.8981,-14.55
131.9981,-15.68
132.0981,-16.62
132.1981,-15.02
132.2981,-11.54
132.3981,-8.15
132.4981,-5.23
132.5981,-2.69
132.6981,-0.43
132.7981,1.83
132.8981,4.18
132.9981,7.85
133.0981,19.05
133.1981,8.7
133.2981,-2.22
133.3981,-5.8
133.4981,-6.83
133.5981,-7.21
133.6981,-7.96
133.7981,-8.81
133.8981,-9.94
133.9981,-10.78
134.0981,-11.25
134.1981,-11.44
134.2981,-11.73
134.3981,-12.01
134.4981,-12.85
134.5981,-14.45
134.6981,-16.34
134.7981,-18.69
134.8981,-20.67
134.9981,-20.48
135.0981,-18.97
135.1981,-17.18
135.2981,-17.0
135.3981,-16.53
135.4981,-17.0
135.5981,-17.94
135.6981,-20.85
135.7981,-23.68
135.8981,-25.75
135.9981,-24.81
136.0981,-22.17
136.1981,-20.29
136.2981,-19.44
136.3981,-18.88
136.4981,-19.44
136.5981,-20.01
136.6981,-20.1
136.7981,-20.2
136.8981,-20.2
136.9981,-20.01
137.0981,-20.29
137.1981,-21.14
137.2981,-22.55
137.3981,-25.0
137.4981,-28.29
137.5981,-27.54
137.6981,-22.55
137.7981,-14.45
137.8981,-12.57
137.9981,-8.05
138.0981,-2.97
138.1981,-1.0
138.2981,-1.0
138.3981,-1.18
138.4981,-2.78
138.5981,-4.38
138.6981,-5.7
138.7981,-5.04
138.8981,-4.1
138.9981,-3.44
139.0981,-2.88
139.1981,-2.78
139.2981,-3.35
139.3981,-3.54
139.4981,-3.35
139.5981,-2.22
139.6981,-1.84
139.7981,-1.94
139.8981,-1.28
139.9981,-2.13
140.0981,-4.1
140.1981,-4.85
140.2981,-5.7
140.3981,-4.95
140.4981,-1.18
140.5981,0.51
140.6981,1.17
140.7981,1.17
140.8981,0.23
140.9981,-0.34
141.0981,-1.84
141.1981,-4.57
141.2981,-7.58
141.3981,-10.6
141.4981,-8.34
141.5981,-5.04
141.6981,-3.73
141.7981,-2.03
141.8981,-1.0
141.9981,-1.09
142.0981,-1.09
142.1981,-0.06
142.2981,1.17
142.3981,1.07
142.4981,0.98
142.5981,0.51
142.6981,-1.0
142.7981,-2.5
142.8981,-6.55
142.9981,-8.62
143.0981,-7.4
143.1981,-4.67
143.2981,-3.07
143.3981,-2.13
143.4981,-2.5
143.5981,-5.14
143.6981,-9.18
143.7981,-14.08
143.8981,-13.7
143.9981,-10.41
144.0981,-8.71
144.1981,-4.95
144.2981,-2.78
144.3981,-1.84
144.4981,-1.47
144.5981,-1.84
144.6981,-1.37
144.7981,-0.9
144.8981,-1.56
144.9981,-1.37
145.0981,-1.18
145.1981,-1.28
145.2981,-2.13
145.3981,-4.2
145.4981,-6.17
145.5981,-8.43
145.6981,-5.89
145.7981,-2.41
145.8981,-1.09
145.9981,1.07
146.0981,1.54
146.1981,2.11
146.2981,3.33
146.3981,2.2
146.4981,0.42
146.5981,-0.62
146.6981,-3.63
146.7981,-4.57
146.8981,-6.08
146.9981,-6.36
147.0981,-6.08
147.1981,-4.67
147.2981,-5.14
147.3981,-2.78
147.4981,-2.6
147.5981,-2.13
147.6981,-0.81
147.7981,0.89
147.8981,-0.24
147.9981,-0.9
148.0981,-0.43
148.1981,-2.97
148.2981,-5.61
148.3981,-5.42
148.4981,-5.42
148.5981,-2.97
148.6981,-1.37
148.7981,-0.71
148.8981,0.04
148.9981,-0.43
149.0981,-1.18
149.1981,-2.97
149.2981,-5.23
149.3981,-8.34
149.4981,-9.84
149.5981,-10.69
149.6981,-13.61
149.7981,-14.93
149.8981,-11.35
149.9981,-5.98
150.0981,-4.57
150.1981,-1.84
150.2981,-0.43
150.3981,-0.06
150.4981,0.79
150.5981,-0.43
150.6981,-1.18
150.7981,-2.41
150.8981,-5.61
150.9981,-10.78
151.0981,-12.76
151.1981,-6.27
151.2981,-3.26
151.3981,-0.06
151.4981,1.17
151.5981,1.54
151.6981,1.36
151.7981,0.7
151.8981,0.51
151.9981,-1.56
152.0981,-2.78
152.1981,-3.26
152.2981,-3.07
152.3981,-2.69
152.4981,-2.6
152.5981,-3.26
152.6981,-3.44
152.7981,-4.57
152.8981,-4.1
152.9981,-2.31
153.0981,-1.18
153.1981,-1.18
153.2981,-1.56
153.3981,-2.03
153.4981,-2.03
153.5981,-4.01
153.6981,-5.04
153.7981,-5.8
153.8981,-3.82
153.9981,-0.9
154.0981,0.51
154.1981,0.79
154.2981,0.98
154.3981,0.51
154.4981,0.7
154.5981,-1.18
154.6981,-2.78
154.7981,-5.8
154.8981,-7.58
154.9981,-6.74
155.0981,-4.95
155.1981,-4.1
155.2981,-4.67
155.3981,-3.91
155.4981,-5.7
155.5981,-7.87
155.6981,-12.29
155.7981,-11.73
155.8981,-6.08
155.9981,-3.63
156.0981,-1.66
156.1981,-1.56
156.2981,-3.82
156.3981,-5.8
156.4981,-7.3
156.5981,-7.58
156.6981,-3.54
156.7981,-2.03
156.8981,-0.43
156.9981,0.04
157.0981,0.04
157.1981,-1.18
157.2981,-1.56
157.3981,-2.97
157.4981,-2.78
157.5981,-3.54
157.6981,-3.35
157.7981,-2.69
157.8981,-2.41
157.9981,-2.31
158.0981,-1.56
158.1981,-1.94
158.2981,-1.09
158.3981,-0.43
158.4981,-0.81
158.5981,-0.34
158.6981,0.89
158.7981,-0.81
158.8981,-1.66
158.9981,-6.55
159.0981,-9.65
159.1981,-7.02
159.2981,-3.07
159.3981,-0.62
159.4981,-0.06
159.5981,0.7
159.6981,1.45
159.7981,1.64
159.8981,1.17
159.9981,0.89
160.0981,-0.53
160.1981,-1.37
160.2981,-2.78
160.3981,-4.1
160.4981,-5.98
160.5981,-6.27
160.6981,-6.45
160.7981,-5.23
160.8981,-3.82
160.9981,-1.75
161.0981,0.04
161.1981,0.42
161.2981,-0.9
161.3981,-1.94
161.4981,-5.33
161.5981,-9.47
161.6981,-15.58
161.7981,-15.77
161.8981,-10.97
161.9981,-6.55
162.0981,-3.44
162.1981,-0.9
162.2981,0.23
162.3981,-0.62
162.4981,-0.43
162.5981,-1.37
162.6981,-1.84
162.7981,-3.44
162.8981,-4.2
162.9981,-4.48
163.0981,-3.73
163.1981,-3.07
163.2981,-3.35
163.3981,-3.44
163.4981,-1.75
163.5981,-0.43
163.6981,-0.53
163.7981,0.79
163.8981,0.89
163.9981,0.89
164.0981,1.36
164.1981,-0.06
164.2981,-2.13
164.3981,-5.33
164.4981,-8.81
164.5981,-10.41
164.6981,-6.36
164.7981,-2.41
164.8981,-1.09
164.9981,0.51
165.0981,1.36
165.1981,1.36
165.2981,0.7
165.3981,0.04
165.4981,-0.53
165.5981,-1.18
165.6981,-1.28
165.7981,-2.13
165.8981,-1.84
165.9981,-2.78
166.0981,-3.91
166.1981,-4.01
166.2981,-3.35
166.3981,-2.78
166.4981,-2.03
166.5981,-0.43
166.6981,1.54
166.7981,0.04
166.8981,-0.34
166.9981,-3.07
167.0981,-5.23
167.1981,-5.98
167.2981,-6.36
167.3981,-5.98
167.4981,-5.98
167.5981,-9.65
167.6981,-11.73
167.7981,-7.58
167.8981,-3.35
167.9981,-1.47
168.0981,-2.13
168.1981,-1.94
168.2981,-3.16
168.3981,-4.85
168.4981,-5.14
168.5981,-5.51
168.6981,-5.98
168.7981,-4.95
168.8981,-3.91
168.9981,-1.66
169.0981,0.89
169.1981,2.02
169.2981,2.3
169.3981,2.77
169.4981,2.67
169.5981,1.17
169.6981,0.7
169.7981,-2.13
169.8981,-5.42
169.9981,-8.62
170.0981,-7.11
170.1981,-5.04
170.2981,-2.22
170.3981,-1.18
170.4981,0.98
170.5981,-0.06
170.6981,-0.43
170.7981,-1.66
170.8981,-1.56
170.9981,-1.47
171.0981,-1.0
171.1981,-0.9
171.2981,-1.0
171.3981,-2.6
171.4981,-2.69
171.5981,-1.66
171.6981,-1.37
171.7981,-1.0
171.8981,0.32
171.9981,1.17
172.0981,0.7
172.1981,0.51
172.2981,-0.24
172.3981,-2.03
172.4981,-5.33
172.5981,-9.94
172.6981,-9.65
172.7981,-5.8
172.8981,-2.41
172.9981,0.32
173.0981,0.98
173.1981,0.98
173.2981,-0.15
173.3981,-2.69
173.4981,-6.93
173.5981,-12.57
173.6981,-13.98
173.7981,-9.75
173.8981,-7.3
173.9981,-6.83
174.0981,-6.74
174.1981,-6.36
174.2981,-5.14
174.3981,-3.82
174.4981,-1.09
174.5981,0.23
174.6981,1.73
174.7981,2.39
174.8981,1.73
174.9981,1.64
175.0981,0.23
175.1981,-1.56
175.2981,-3.63
175.3981,-4.95
175.4981,-3.82
175.5981,-1.94
175.6981,-0.71
175.7981,0.04
175.8981,0.6
175.9981,0.32
176.0981,-0.53
176.1981,-2.41
176.2981,-3.44
176.3981,-3.73
176.4981,-4.1
176.5981,-3.73
176.6981,-4.85
176.7981,-4.57
176.8981,-3.16
176.9981,-2.22
177.0981,-0.34
177.1981,0.6
177.2981,1.26
177.3981,1.83
177.4981,3.24
177.5981,2.58
177.6981,0.89
177.7981,-1.18
177.8981,-2.97
177.9981,-6.55
178.0981,-9.28
178.1981,-6.36
178.2981,-4.01
178.3981,-0.71
178.4981,0.51
178.5981,0.98
178.6981,0.7
178.7981,0.79
178.8981,0.6
178.9981,0.7
179.0981,-0.71
179.1981,-1.47
179.2981,-3.82
179.3981,-7.96
179.4981,-12.01
179.5981,-18.03
179.6981,-16.43
179.7981,-11.25
179.8981,-5.98
179.9981,-2.6
180.0981,-1.84
180.1981,0.42
180.2981,1.36
180.3981,0.42
180.4981,-0.9
180.5981,-3.44
180.6981,-5.51
180.7981,-4.85
180.8981,-3.63
180.9981,-1.37
181.0981,-0.15
181.1981,1.07
181.2981,1.54
181.3981,1.36
181.4981,1.45
181.5981,0.32
181.6981,-0.06
181.7981,-1.18
181.8981,-2.03
181.9981,-3.35
182.0981,-4.29
182.1981,-6.74
182.2981,-6.64
182.3981,-5.04
182.4981,-2.88
182.5981,0.32
182.6981,1.73
182.7981,1.83
182.8981,2.67
182.9981,2.39
183.0981,1.64
183.1981,-0.06
183.2981,-1.84
183.3981,-3.91
183.4981,-6.74
183.5981,-5.61
183.6981,-5.8
183.7981,-2.97
183.8981,-0.71
183.9981,0.04
184.0981,-0.34
184.1981,-0.53
184.2981,-0.15
184.3981,0.51
184.4981,-0.43
184.5981,-1.09
184.6981,-1.37
184.7981,-0.34
184.8981,-1.66
184.9981,-3.54
185.0981,-3.16
185.1981,-3.26
185.2981,-4.2
185.3981,-6.36
185.4981,-9.65
185.5981,-11.63
185.6981,-8.53
185.7981,-5.89
185.8981,-4.76
185.9981,-6.74
186.0981,-8.9
186.1981,-8.05
186.2981,-5.7
186.3981,-1.94
186.4981,-0.24
186.5981,0.04
186.6981,1.83
186.7981,2.02
186.8981,1.64
186.9981,1.92
187.0981,1.45
187.1981,0.89
187.2981,-0.34
187.3981,-0.9
187.4981,-3.16
187.5981,-5.33
187.6981,-7.21
187.7981,-6.55
187.8981,-4.1
187.9981,-1.37
188.0981,0.04
188.1981,1.07
188.2981,1.64
188.3981,1.17
188.4981,1.17
188.5981,0.89
188.6981,-1.09
188.7981,-2.88
188.8981,-3.73
188.9981,-3.16
189.0981,-2.31
189.1981,-1.56
189.2981,-0.9
189.3981,-0.9
189.4981,-0.43
189.5981,-1.18
189.6981,-0.53
189.7981,-0.34
189.8981,-1.66
189.9981,-1.28
190.0981,-2.78
190.1981,-3.91
190.2981,-4.38
190.3981,-4.29
190.4981,-2.78
190.5981,-0.24
190.6981,0.23
190.7981,2.39
190.8981,2.77
190.9981,3.05
191.0981,2.11
191.1981,0.42
191.2981,-4.48
191.3981,-9.65
191.4981,-17.65
191.5981,-20.57
191.6981,-15.49
191.7981,-8.62
191.8981,-4.95
191.9981,-3.16
192.0981,-0.43
192.1981,0.13
192.2981,0.13
192.3981,0.79
192.4981,1.45
192.5981,0.7
192.6981,0.79
192.7981,0.23
192.8981,-1.47
192.9981,-4.38
193.0981,-5.14
193.1981,-5.51
193.2981,-3.91
193.3981,-2.6
193.4981,0.04
193.5981,0.42
193.6981,1.07
193.7981,1.07
193.8981,0.23
193.9981,-0.9
194.0981,-2.03
194.1981,-5.04
194.2981,-5.23
194.3981,-2.88
194.4981,-1.18
194.5981,0.23
194.6981,1.17
194.7981,0.23
194.8981,0.32
194.9981,1.17
195.0981,1.92
195.1981,0.51
195.2981,-0.81
195.3981,-0.81
195.4981,-2.03
195.5981,-4.29
195.6981,-6.36
195.7981,-8.15
195.8981,-6.74
195.9981,-2.5
196.0981,-0.24
196.1981,0.98
196.2981,2.77
196.3981,3.14
196.4981,2.86
196.5981,2.67
196.6981,1.17
196.7981,0.04
196.8981,-2.13
196.9981,-4.95
197.0981,-5.61
197.1981,-6.45
197.2981,-8.53
197.3981,-10.5
197.4981,-14.45
197.5981,-12.76
197.6981,-7.4
197.7981,-4.38
197.8981,-1.94
197.9981,-0.9
198.0981,-0.34
198.1981,-1.47
198.2981,-2.03
198.3981,-2.5
198.4981,-5.23
198.5981,-4.01
198.6981,-2.97
198.7981,-0.62
198.8981,0.42
198.9981,0.98
199.0981,1.83
199.1981,1.36
199.2981,0.04
199.3981,-1.37
199.4981,-4.38
199.5981,-6.36
199.6981,-6.55
199.7981,-4.95
199.8981,-2.41
199.9981,-0.53
200.0981,0.6
200.1981,0.89
200.2981,1.36
200.3981,1.83
200.4981,2.2
200.5981,2.11
200.6981,1.83
200.7981,0.04
200.8981,-0.71
200.9981,-1.47
201.0981,-4.48
201.1981,-8.24
201.2981,-8.34
201.3981,-5.42
201.4981,-2.31
201.5981,-0.62
201.6981,0.98
201.7981,1.17
201.8981,1.83
201.9981,2.2
202.0981,0.6
202.1981,-1.0
202.2981,-1.56
202.3981,-3.26
202.4981,-2.41
202.5981,-2.69
202.6981,-1.47
202.7981,-1.47
202.8981,-1.18
202.9981,-1.18
203.0981,-2.03
203.1981,-4.01
203.2981,-6.17
203.3981,-10.41
203.4981,-14.08
203.5981,-11.54
203.6981,-8.71
203.7981,-7.96
203.8981,-6.74
203.9981,-4.57
204.0981,-1.56
204.1981,1.07
204.2981,1.36
204.3981,2.49
204.4981,3.33
204.5981,2.39
204.6981,2.2
204.7981,0.79
204.8981,-1.47
204.9981,-4.48
205.0981,-7.49
205.1981,-8.34
205.2981,-5.8
205.3981,-3.73
205.4981,-1.37
205.5981,0.13
205.6981,-0.15
205.7981,0.98
205.8981,2.11
205.9981,1.73
206.0981,0.98
206.1981,1.92
206.2981,0.6
206.3981,-1.0
206.4981,-2.78
206.5981,-4.67
206.6981,-6.27
206.7981,-5.33
206.8981,-2.13
206.9981,-0.24
207.0981,-0.34
207.1981,0.79
207.2981,1.26
207.3981,1.07
207.4981,-0.71
207.5981,-2.78
207.6981,-4.01
207.7981,-3.35
207.8981,-3.35
207.9981,-2.88
208.0981,-1.56
208.1981,-0.24
208.2981,0.23
208.3981,0.98
208.4981,1.36
208.5981,0.23
208.6981,1.45
208.7981,0.7
208.8981,-0.81
208.9981,-2.6
209.0981,-5.51
209.1981,-11.16
209.2981,-16.34
209.3981,-18.5
209.4981,-16.05
209.5981,-8.15
209.6981,-4.67
209.7981,-0.15
209.8981,2.39
209.9981,2.67
210.0981,1.54
210.1981,0.89
210.2981,-0.06
210.3981,-1.0
210.4981,-3.26
210.5981,-4.29
210.6981,-4.85
210.7981,-4.1
210.8981,-4.57
210.9981,-2.88
211.0981,-1.94
211.1981,-0.81
211.2981,-0.06
211.3981,0.13
211.4981,0.79
211.5981,0.6
211.6981,0.32
211.7981,-1.37
211.8981,-2.88
211.9981,-4.1
212.0981,-3.82
212.1981,-2.69
212.2981,-0.81
212.3981,0.7
212.4981,2.2
212.5981,2.3
212.6981,2.58
212.7981,0.98
212.8981,-0.15
212.9981,-2.6
213.0981,-4.1
213.1981,-6.27
213.2981,-6.17
213.3981,-4.38
213.4981,-2.69
213.5981,-1.28
213.6981,-1.09
213.7981,0.79
213.8981,1.92
213.9981,1.92
214.0981,2.3
214.1981,2.67
214.2981,1.64
214.3981,0.04
214.4981,-1.09
214.5981,-4.38
214.6981,-7.49
214.7981,-9.65
214.8981,-6.64
214.9981,-4.57
215.0981,-3.82
215.1981,-3.91
215.2981,-6.93
215.3981,-11.73
215.4981,-11.16
215.5981,-7.4
215.6981,-4.1
215.7981,-3.44
215.8981,-3.07
215.9981,-2.6
216.0981,-1.47
216.1981,-1.47
216.2981,-1.37
216.3981,-1.37
216.4981,-0.71
216.5981,0.6
216.6981,-0.15
216.7981,1.26
216.8981,-0.24
216.9981,-0.43
217.0981,-1.18
217.1981,-3.26
217.2981,-5.7
217.3981,-6.93
217.4981,-5.14
217.5981,-2.03
217.6981,-0.53
217.7981,1.45
217.8981,2.49
217.9981,2.11
218.0981,2.2
218.1981,1.92
218.2981,0.7
218.3981,-0.24
218.4981,-2.41
218.5981,-4.76
218.6981,-7.11
218.7981,-6.83
218.8981,-4.1
218.9981,-2.6
219.0981,-1.94
219.1981,0.32
219.2981,1.64
219.3981,2.58
219.4981,1.92
219.5981,2.49
219.6981,2.11
219.7981,1.17
219.8981,0.79
219.9981,-1.47
220.0981,-3.91
220.1981,-6.93
220.2981,-5.33
220.3981,-3.16
220.4981,-2.03
220.5981,-0.62
220.6981,0.32
220.7981,0.79
220.8981,-1.47
220.9981,-2.5
221.0981,-4.95
221.1981,-8.9
221.2981,-13.33
221.3981,-16.9
221.4981,-13.33
221.5981,-7.68
221.6981,-4.2
221.7981,-2.41
221.8981,-0.34
221.9981,0.42
222.0981,0.89
222.1981,0.98
222.2981,0.7
222.3981,0.51
222.4981,-0.62
222.5981,-1.94
222.6981,-4.48
222.7981,-6.93
222.8981,-7.87
222.9981,-6.27
223.0981,-2.22
223.1981,-0.34
223.2981,1.07
223.3981,1.92
223.4981,2.58
223.5981,1.83
223.6981,1.45
223.7981,0.7
223.8981,-1.0
223.9981,-2.6
224.0981,-4.2
224.1981,-4.48
224.2981,-5.23
224.3981,-5.14
224.4981,-3.54
224.5981,-2.31
224.6981,-0.24
224.7981,0.42
224.8981,-0.06
224.9981,1.45
225.0981,0.7
225.1981,-1.18
225.2981,-1.28
225.3981,-2.69
225.4981,-2.5
225.5981,-4.67
225.6981,-2.88
225.7981,-0.62
225.8981,0.04
225.9981,0.7
226.0981,1.07
226.1981,0.6
226.2981,0.23
226.3981,0.04
226.4981,-0.71
226.5981,-2.97
226.6981,-4.85
226.7981,-6.55
226.8981,-6.74
226.9981,-5.98
227.0981,-6.36
227.1981,-7.11
227.2981,-11.16
227.3981,-12.2
227.4981,-7.21
227.5981,-2.5
227.6981,0.04
227.7981,1.17
227.8981,1.17
227.9981,-0.81
228.0981,-2.88
228.1981,-5.33
228.2981,-8.05
228.3981,-6.17
228.4981,-3.63
228.5981,-1.18
228.6981,0.42
228.7981,1.36
228.8981,2.02
228.9981,1.83
229.0981,1.36
229.1981,0.6
229.2981,0.6
229.3981,-1.66
229.4981,-2.6
229.5981,-2.6
229.6981,-2.78
229.7981,-3.16
229.8981,-2.22
229.9981,-1.28
230.0981,-0.24
230.1981,0.51
230.2981,0.13
230.3981,-0.34
230.4981,-0.71
230.5981,-0.24
230.6981,-4.1
230.7981,-5.7
230.8981,-7.11
230.9981,-5.23
231.0981,-3.07
231.1981,-1.09
231.2981,0.7
231.3981,1.45
231.4981,1.83
231.5981,1.73
231.6981,2.86
231.7981,1.26
231.8981,0.98
231.9981,0.32
232.0981,-0.9
232.1981,-3.63
232.2981,-4.95
232.3981,-5.89
232.4981,-5.51
232.5981,-3.91
232.6981,-2.5
232.7981,-0.9
232.8981,0.13
232.9981,-0.06
233.0981,-2.03
233.1981,-5.98
233.2981,-11.07
233.3981,-11.07
233.4981,-8.34
233.5981,-7.68
233.6981,-7.3
233.7981,-6.36
233.8981,-4.85
233.9981,-1.94
234.0981,-1.18
234.1981,-0.43
234.2981,-0.71
234.3981,0.23
234.4981,-0.24
234.5981,-1.66
234.6981,-2.41
234.7981,-2.69
234.8981,-2.69
234.9981,-2.22
235.0981,-2.69
235.1981,-1.09
235.2981,-0.71
235.3981,0.13
235.4981,1.36
235.5981,1.36
235.6981,1.45
235.7981,2.02
235.8981,1.26
235.9981,0.79
236.0981,-1.0
236.1981,-3.44
236.2981,-7.21
236.3981,-9.56
236.4981,-7.21
236.5981,-3.35
236.6981,-0.53
236.7981,1.64
236.8981,1.64
236.9981,2.02
237.0981,1.64
237.1981,1.73
237.2981,0.51
237.3981,0.51
237.4981,-1.66
237.5981,-2.22
237.6981,-4.57
237.7981,-4.67
237.8981,-5.04
237.9981,-4.01
238.0981,-2.88
238.1981,-1.66
238.2981,0.32
238.3981,0.42
238.4981,0.32
238.5981,0.98
238.6981,0.6
238.7981,-0.34
238.8981,-2.88
238.9981,-6.27
239.0981,-9.0
239.1981,-13.04
239.2981,-15.96
239.3981,-11.25
239.4981,-6.17
239.5981,-2.97
239.6981,-0.62
239.7981,-0.15
239.8981,-0.34
239.9981,-0.43
240.0981,-2.22
240.1981,-3.82
240.2981,-5.89
240.3981,-5.89
240.4981,-5.23
240.5981,-4.01
240.6981,-2.03
240.7981,-0.53
240.8981,0.51
240.9981,2.96
241.0981,3.05
241.1981,3.43
241.2981,2.86
241.3981,2.39
241.4981,1.45
241.5981,-0.62
241.6981,-3.07
241.7981,-6.83
241.8981,-8.05
241.9981,-5.23
242.0981,-3.07
242.1981,-1.37
242.2981,0.23
242.3981,0.98
242.4981,0.6
242.5981,0.89
242.6981,0.51
242.7981,0.89
242.8981,0.13
242.9981,-2.03
