Frequency(MHz),Power(dBmV/100kHz)_20260203_091320
107.8981,-82.29
107.9981,-53.3
108.0981,-53.02
108.1981,-55.93
108.2981,-55.18
108.3981,-52.73
108.4981,-51.98
108.5981,-53.02
108.6981,-52.64
108.7981,-53.2
108.8981,-53.67
108.9981,-53.96
109.0981,-53.86
109.1981,-53.39
109.2981,-52.36
109.3981,-54.43
109.4981,-54.62
109.5981,-54.24
109.6981,-53.02
109.7981,-53.11
109.8981,-52.45
109.9981,-52.92
110.0981,-53.11
110.1981,-52.45
110.2981,-53.02
110.3981,-53.67
110.4981,-53.11
110.5981,-52.54
110.6981,-53.2
110.7981,-54.05
110.8981,-53.39
110.9981,-52.73
111.0981,-53.49
111.1981,-52.92
111.2981,-52.26
111.3981,-52.07
111.4981,-51.79
111.5981,-51.04
111.6981,-51.7
111.7981,-51.7
111.8981,-53.2
111.9981,-53.2
112.0981,-52.54
112.1981,-52.83
112.2981,-53.77
112.3981,-53.2
112.4981,-53.2
112.5981,-53.67
112.6981,-53.2
112.7981,-53.67
112.8981,-53.39
112.9981,-52.73
113.0981,-53.2
113.1981,-55.18
113.2981,-53.77
113.3981,-52.92
113.4981,-53.77
113.5981,-53.67
113.6981,-52.45
113.7981,-52.64
113.8981,-53.11
113.9981,-53.11
114.0981,-53.3
114.1981,-54.9
114.2981,-53.02
114.3981,-52.07
114.4981,-51.6
114.5981,-52.73
114.6981,-51.23
114.7981,-51.89
114.8981,-52.45
114.9981,-53.02
115.0981,-54.05
115.1981,-52.26
115.2981,-51.13
115.3981,-50.66
115.4981,-50.19
115.5981,-51.79
115.6981,-53.86
115.7981,-54.33
115.8981,-53.3
115.9981,-51.98
116.0981,-52.64
116.1981,-54.14
116.2981,-54.24
116.3981,-53.02
116.4981,-53.96
116.5981,-55.65
116.6981,-55.09
116.7981,-54.14
116.8981,-54.33
116.9981,-52.64
117.0981,-52.92
117.1981,-51.51
117.2981,-52.17
117.3981,-53.39
117.4981,-52.54
117.5981,-52.07
117.6981,-51.79
117.7981,-51.89
117.8981,-51.89
117.9981,-52.07
118.0981,-50.85
118.1981,-51.23
118.2981,-52.26
118.3981,-52.36
118.4981,-53.11
118.5981,-53.58
118.6981,-53.67
118.7981,-52.45
118.8981,-52.54
118.9981,-54.24
119.0981,-55.09
119.1981,-54.05
119.2981,-53.58
119.3981,-53.86
119.4981,-53.49
119.5981,-53.86
119.6981,-53.77
119.7981,-54.24
119.8981,-54.05
119.9981,-52.54
120.0981,-51.42
120.1981,-52.83
120.2981,-54.14
120.3981,-51.42
120.4981,-52.54
120.5981,-52.73
120.6981,-52.07
120.7981,-51.89
120.8981,-52.17
120.9981,-52.45
121.0981,-52.54
121.1981,-51.98
121.2981,-52.64
121.3981,-53.11
121.4981,-52.26
121.5981,-51.51
121.6981,-53.86
121.7981,-54.52
121.8981,-53.58
121.9981,-54.05
122.0981,-54.05
122.1981,-54.24
122.2981,-52.54
122.3981,-52.92
122.4981,-55.65
122.5981,-54.8
122.6981,-54.52
122.7981,-53.39
122.8981,-52.83
122.9981,-53.11
123.0981,-53.86
123.1981,-53.02
123.2981,-52.26
123.3981,-52.45
123.4981,-53.39
123.5981,-53.11
123.6981,-53.11
123.7981,-52.64
123.8981,-54.24
123.9981,-55.65
124.0981,-53.11
124.1981,-52.92
124.2981,-53.67
124.3981,-54.24
124.4981,-53.39
124.5981,-52.73
124.6981,-52.17
124.7981,-53.3
124.8981,-53.11
124.9981,-54.05
125.0981,-54.43
125.1981,-52.54
125.2981,-53.96
125.3981,-53.67
125.4981,-52.64
125.5981,-51.23
125.6981,-51.04
125.7981,-50.66
125.8981,-51.42
125.9981,-51.6
126.0981,-51.51
126.1981,-51.98
126.2981,-52.45
126.3981,-53.2
126.4981,-52.64
126.5981,-53.3
126.6981,-52.73
126.7981,-51.23
126.8981,-51.6
126.9981,-53.02
127.0981,-54.05
127.1981,-53.96
127.2981,-53.67
127.3981,-52.36
127.4981,-52.64
127.5981,-52.64
127.6981,-53.2
127.7981,-52.83
127.8981,-51.7
127.9981,-53.02
128.0981,-54.05
128.1981,-52.26
128.2981,-52.17
128.3981,-52.83
128.4981,-53.2
128.5981,-54.52
128.6981,-54.52
128.7981,-53.11
128.8981,-51.89
128.9981,-51.98
129.0981,-51.7
129.1981,-52.73
129.2981,-53.3
129.3981,-53.02
129.4981,-52.45
129.5981,-52.92
129.6981,-52.54
129.7981,-51.7
129.8981,-53.2
129.9981,-54.14
130.0981,-53.02
130.1981,-52.92
130.2981,-53.86
130.3981,-53.58
130.4981,-53.2
130.5981,-54.05
130.6981,-53.96
130.7981,-53.39
130.8981,-52.45
130.9981,-52.92
131.0981,-52.36
131.1981,-51.98
131.2981,-51.23
131.3981,-51.89
131.4981,-53.3
131.5981,-52.64
131.6981,-53.02
131.7981,-52.54
131.8981,-53.58
131.9981,-53.11
132.0981,-53.02
132.1981,-52.64
132.2981,-51.6
132.3981,-52.73
132.4981,-53.3
132.5981,-53.67
132.6981,-53.49
132.7981,-52.73
132.8981,-53.67
132.9981,-53.2
133.0981,-53.86
133.1981,-53.86
133.2981,-55.18
133.3981,-55.65
133.4981,-54.05
133.5981,-54.05
133.6981,-53.86
133.7981,-53.39
133.8981,-53.77
133.9981,-54.99
134.0981,-53.3
134.1981,-51.04
134.2981,-50.47
134.3981,-52.07
134.4981,-53.02
134.5981,-52.36
134.6981,-52.64
134.7981,-52.54
134.8981,-53.86
134.9981,-51.98
135.0981,-52.45
135.1981,-53.2
135.2981,-53.39
135.3981,-54.05
135.4981,-53.67
135.5981,-52.45
135.6981,-51.79
135.7981,-52.36
135.8981,-53.86
135.9981,-54.33
136.0981,-54.62
136.1981,-54.71
136.2981,-53.67
136.3981,-53.2
136.4981,-53.39
136.5981,-53.49
136.6981,-53.2
136.7981,-54.05
136.8981,-53.39
136.9981,-53.86
137.0981,-52.92
137.1981,-52.64
137.2981,-53.11
137.3981,-52.17
137.4981,-51.79
137.5981,-52.45
137.6981,-53.2
137.7981,-52.26
137.8981,-51.42
137.9981,-52.92
138.0981,-54.71
138.1981,-53.86
138.2981,-53.3
138.3981,-53.11
138.4981,-53.2
138.5981,-52.92
138.6981,-52.92
138.7981,-53.2
138.8981,-54.71
138.9981,-53.39
139.0981,-52.92
139.1981,-52.92
139.2981,-52.73
139.3981,-52.54
139.4981,-54.62
139.5981,-54.05
139.6981,-51.89
139.7981,-52.26
139.8981,-53.86
139.9981,-53.58
140.0981,-52.26
140.1981,-52.45
140.2981,-52.73
140.3981,-53.11
140.4981,-53.11
140.5981,-52.07
140.6981,-52.83
140.7981,-54.33
140.8981,-50.85
140.9981,-52.92
141.0981,-53.02
141.1981,-52.83
141.2981,-54.14
141.3981,-53.67
141.4981,-54.43
141.5981,-54.9
141.6981,-52.07
141.7981,-51.6
141.8981,-53.67
141.9981,-53.49
142.0981,-53.3
142.1981,-52.54
142.2981,-53.77
142.3981,-53.49
142.4981,-52.36
142.5981,-52.36
142.6981,-52.92
142.7981,-53.67
142.8981,-55.74
142.9981,-54.71
143.0981,-51.89
143.1981,-50.29
143.2981,-51.79
143.3981,-53.3
143.4981,-52.36
143.5981,-54.05
143.6981,-53.39
143.7981,-54.05
143.8981,-52.45
143.9981,-52.45
144.0981,-53.49
144.1981,-54.14
144.2981,-53.67
144.3981,-54.62
144.4981,-54.24
144.5981,-54.8
144.6981,-53.2
144.7981,-53.02
144.8981,-52.07
144.9981,-52.54
145.0981,-52.07
145.1981,-53.11
145.2981,-53.3
145.3981,-52.45
145.4981,-51.7
145.5981,-51.42
145.6981,-51.32
145.7981,-50.19
145.8981,-51.89
145.9981,-52.07
146.0981,-53.2
146.1981,-53.77
146.2981,-54.33
146.3981,-53.3
146.4981,-51.42
146.5981,-51.79
146.6981,-52.54
146.7981,-53.2
146.8981,-54.9
146.9981,-54.99
147.0981,-53.77
147.1981,-53.2
147.2981,-53.02
147.3981,-53.96
147.4981,-55.09
147.5981,-55.09
147.6981,-52.83
147.7981,-52.83
147.8981,-52.73
147.9981,-53.11
148.0981,-53.49
148.1981,-52.92
148.2981,-52.64
148.3981,-52.36
148.4981,-51.98
148.5981,-50.94
148.6981,-51.51
148.7981,-52.64
148.8981,-52.17
148.9981,-52.54
149.0981,-53.77
149.1981,-54.99
149.2981,-54.33
149.3981,-51.89
149.4981,-52.92
149.5981,-52.83
149.6981,-52.92
149.7981,-54.43
149.8981,-54.43
149.9981,-54.9
150.0981,-54.52
150.1981,-53.67
150.2981,-55.84
150.3981,-53.39
150.4981,-52.92
150.5981,-52.26
150.6981,-52.26
150.7981,-52.26
150.8981,-52.45
150.9981,-51.42
151.0981,-51.79
151.1981,-50.66
151.2981,-51.32
151.3981,-53.2
151.4981,-51.51
151.5981,-51.98
151.6981,-51.79
151.7981,-51.42
151.8981,-52.07
151.9981,-52.92
152.0981,-52.64
152.1981,-52.83
152.2981,-52.54
152.3981,-52.83
152.4981,-53.67
152.5981,-55.56
152.6981,-54.05
152.7981,-52.54
152.8981,-52.83
152.9981,-53.49
153.0981,-55.74
153.1981,-54.8
153.2981,-52.83
153.3981,-51.51
153.4981,-52.83
153.5981,-53.49
153.6981,-53.49
153.7981,-52.83
153.8981,-51.32
153.9981,-52.83
154.0981,-52.83
154.1981,-51.98
154.2981,-51.7
154.3981,-50.38
154.4981,-50.19
154.5981,-51.89
154.6981,-52.17
154.7981,-52.26
154.8981,-52.73
154.9981,-53.49
155.0981,-52.54
155.1981,-52.45
155.2981,-53.39
155.3981,-52.64
155.4981,-52.54
155.5981,-54.14
155.6981,-55.84
155.7981,-54.99
155.8981,-53.67
155.9981,-52.92
156.0981,-52.73
156.1981,-54.05
156.2981,-54.14
156.3981,-53.86
156.4981,-53.02
156.5981,-52.54
156.6981,-52.26
156.7981,-52.07
156.8981,-52.92
156.9981,-53.49
157.0981,-53.11
157.1981,-53.11
157.2981,-52.17
157.3981,-50.85
157.4981,-51.7
157.5981,-50.76
157.6981,-50.1
157.7981,-51.42
157.8981,-53.2
157.9981,-53.67
158.0981,-52.45
158.1981,-53.02
158.2981,-52.83
158.3981,-53.02
158.4981,-54.43
158.5981,-54.24
158.6981,-53.77
158.7981,-54.05
158.8981,-53.67
158.9981,-53.58
159.0981,-54.05
159.1981,-53.77
159.2981,-53.49
159.3981,-54.24
159.4981,-53.11
159.5981,-52.73
159.6981,-52.83
159.7981,-52.73
159.8981,-51.7
159.9981,-52.73
160.0981,-53.02
160.1981,-53.39
160.2981,-52.83
160.3981,-52.73
160.4981,-52.92
160.5981,-52.45
160.6981,-51.51
160.7981,-52.17
160.8981,-52.73
160.9981,-52.83
161.0981,-54.05
161.1981,-53.77
161.2981,-52.64
161.3981,-51.98
161.4981,-52.36
161.5981,-52.45
161.6981,-53.86
161.7981,-53.86
161.8981,-53.77
161.9981,-52.92
162.0981,-52.36
162.1981,-51.04
162.2981,-50.47
162.3981,-52.54
162.4981,-53.39
162.5981,-54.05
162.6981,-54.24
162.7981,-52.45
162.8981,-51.89
162.9981,-53.11
163.0981,-52.07
163.1981,-53.2
163.2981,-53.3
163.3981,-52.92
163.4981,-53.77
163.5981,-53.11
163.6981,-52.92
163.7981,-53.39
163.8981,-54.05
163.9981,-54.05
164.0981,-54.24
164.1981,-53.96
164.2981,-53.02
164.3981,-52.07
164.4981,-53.39
164.5981,-52.92
164.6981,-52.83
164.7981,-52.07
164.8981,-52.64
164.9981,-53.49
165.0981,-53.67
165.1981,-52.83
165.2981,-50.94
165.3981,-51.42
165.4981,-49.82
165.5981,-51.23
165.6981,-53.49
165.7981,-54.71
165.8981,-55.46
165.9981,-53.02
166.0981,-51.23
166.1981,-51.7
166.2981,-51.51
166.3981,-53.58
166.4981,-54.05
166.5981,-54.24
166.6981,-54.9
166.7981,-54.52
166.8981,-53.49
166.9981,-52.54
167.0981,-52.45
167.1981,-53.96
167.2981,-55.27
167.3981,-54.71
167.4981,-52.54
167.5981,-50.94
167.6981,-51.32
167.7981,-51.6
167.8981,-51.6
167.9981,-50.94
168.0981,-52.73
168.1981,-53.3
168.2981,-51.79
168.3981,-51.51
168.4981,-53.2
168.5981,-52.45
168.6981,-52.54
168.7981,-51.98
168.8981,-51.23
168.9981,-51.89
169.0981,-52.54
169.1981,-51.42
169.2981,-52.64
169.3981,-53.77
169.4981,-54.52
169.5981,-53.77
169.6981,-54.52
169.7981,-54.71
169.8981,-55.09
169.9981,-53.67
170.0981,-53.49
170.1981,-53.02
170.2981,-52.64
170.3981,-52.07
170.4981,-52.45
170.5981,-51.7
170.6981,-52.45
170.7981,-50.1
170.8981,-49.63
170.9981,-50.38
171.0981,-51.79
171.1981,-51.42
171.2981,-51.13
171.3981,-52.17
171.4981,-51.04
171.5981,-49.91
171.6981,-51.13
171.7981,-51.79
171.8981,-51.7
171.9981,-51.51
172.0981,-52.83
172.1981,-53.11
172.2981,-52.17
172.3981,-53.49
172.4981,-53.02
172.5981,-51.98
172.6981,-52.54
172.7981,-54.43
172.8981,-54.9
172.9981,-52.17
173.0981,-51.04
173.1981,-52.92
173.2981,-51.04
173.3981,-50.94
173.4981,-53.3
173.5981,-54.9
173.6981,-52.92
173.7981,-52.07
173.8981,-51.79
173.9981,-51.51
174.0981,-51.42
174.1981,-51.98
174.2981,-51.51
174.3981,-50.19
174.4981,-51.42
174.5981,-52.64
174.6981,-52.36
174.7981,-51.89
174.8981,-52.17
174.9981,-51.51
175.0981,-52.73
175.1981,-52.83
175.2981,-53.49
175.3981,-54.99
175.4981,-53.58
175.5981,-52.73
175.6981,-53.2
175.7981,-53.2
175.8981,-54.14
175.9981,-55.27
176.0981,-54.33
176.1981,-52.73
176.2981,-51.42
176.3981,-50.94
176.4981,-50.1
176.5981,-50.94
176.6981,-51.04
176.7981,-52.73
176.8981,-53.58
176.9981,-52.07
177.0981,-50.1
177.1981,-50.76
177.2981,-50.66
177.3981,-51.32
177.4981,-53.96
177.5981,-52.07
177.6981,-52.07
177.7981,-53.11
177.8981,-51.79
177.9981,-52.26
178.0981,-52.36
178.1981,-53.58
178.2981,-54.24
178.3981,-53.58
178.4981,-53.39
178.5981,-53.67
178.6981,-53.49
178.7981,-54.05
178.8981,-53.39
178.9981,-52.64
179.0981,-52.54
179.1981,-54.24
179.2981,-53.39
179.3981,-52.64
179.4981,-53.11
179.5981,-51.89
179.6981,-51.32
179.7981,-52.54
179.8981,-52.17
179.9981,-51.7
180.0981,-52.54
180.1981,-52.92
180.2981,-51.7
180.3981,-51.51
180.4981,-51.51
180.5981,-50.76
180.6981,-51.23
180.7981,-53.67
180.8981,-53.86
180.9981,-52.07
181.0981,-51.51
181.1981,-51.98
181.2981,-52.45
181.3981,-53.02
181.4981,-53.58
181.5981,-53.77
181.6981,-52.54
181.7981,-50.1
181.8981,-51.42
181.9981,-52.45
182.0981,-51.98
182.1981,-53.58
182.2981,-52.36
182.3981,-51.42
182.4981,-50.76
182.5981,-50.94
182.6981,-50.57
182.7981,-51.79
182.8981,-53.02
182.9981,-51.6
183.0981,-53.02
183.1981,-53.39
183.2981,-51.79
183.3981,-52.45
183.4981,-51.98
183.5981,-51.98
183.6981,-52.17
183.7981,-51.6
183.8981,-51.7
183.9981,-52.54
184.0981,-53.02
184.1981,-53.39
184.2981,-53.2
184.3981,-53.02
184.4981,-52.54
184.5981,-51.6
184.6981,-51.6
184.7981,-50.57
184.8981,-50.57
184.9981,-50.66
185.0981,-51.42
185.1981,-51.04
185.2981,-51.13
185.3981,-50.19
185.4981,-50.66
185.5981,-52.92
185.6981,-52.17
185.7981,-50.29
185.8981,-51.13
185.9981,-51.6
186.0981,-52.45
186.1981,-53.77
186.2981,-53.58
186.3981,-54.43
186.4981,-53.58
186.5981,-53.49
186.6981,-52.92
186.7981,-52.73
186.8981,-54.71
186.9981,-53.96
187.0981,-52.73
187.1981,-51.98
187.2981,-52.64
187.3981,-52.07
187.4981,-50.94
187.5981,-51.13
187.6981,-51.23
187.7981,-50.94
187.8981,-49.82
187.9981,-49.53
188.0981,-50.66
188.1981,-51.79
188.2981,-51.04
188.3981,-51.32
188.4981,-51.98
188.5981,-50.66
188.6981,-50.76
188.7981,-52.45
188.8981,-53.2
188.9981,-52.73
189.0981,-52.54
189.1981,-53.49
189.2981,-51.7
189.3981,-53.3
189.4981,-55.27
189.5981,-55.84
189.6981,-54.52
189.7981,-53.77
189.8981,-51.79
189.9981,-52.73
190.0981,-54.62
190.1981,-53.3
190.2981,-52.73
190.3981,-51.89
190.4981,-53.11
190.5981,-50.57
190.6981,-50.38
190.7981,-52.36
190.8981,-52.45
190.9981,-51.79
191.0981,-51.32
191.1981,-50.66
191.2981,-50.29
191.3981,-51.23
191.4981,-50.66
191.5981,-50.85
191.6981,-53.39
191.7981,-54.99
191.8981,-54.05
191.9981,-54.9
192.0981,-55.27
192.1981,-52.73
192.2981,-53.77
192.3981,-54.05
192.4981,-54.33
192.5981,-55.74
192.6981,-54.9
192.7981,-52.26
192.8981,-52.17
192.9981,-52.45
193.0981,-52.07
193.1981,-51.79
193.2981,-51.98
193.3981,-52.54
193.4981,-53.2
193.5981,-52.92
193.6981,-51.7
193.7981,-51.42
193.8981,-50.94
193.9981,-51.98
194.0981,-52.45
194.1981,-52.64
194.2981,-51.79
194.3981,-51.42
194.4981,-52.54
194.5981,-52.45
194.6981,-51.13
194.7981,-51.6
194.8981,-51.6
194.9981,-53.58
195.0981,-55.27
195.1981,-54.05
195.2981,-53.02
195.3981,-53.2
195.4981,-52.54
195.5981,-52.64
195.6981,-53.86
195.7981,-53.49
195.8981,-53.77
195.9981,-51.89
196.0981,-52.45
196.1981,-52.36
196.2981,-52.45
196.3981,-52.45
196.4981,-52.92
196.5981,-52.17
196.6981,-51.04
196.7981,-51.42
196.8981,-51.42
196.9981,-51.42
197.0981,-52.07
197.1981,-51.89
197.2981,-52.17
197.3981,-51.23
197.4981,-50.47
197.5981,-50.19
197.6981,-49.72
197.7981,-50.76
197.8981,-52.45
197.9981,-53.96
198.0981,-53.02
198.1981,-52.36
198.2981,-52.92
198.3981,-52.64
198.4981,-53.39
198.5981,-53.86
198.6981,-51.98
198.7981,-51.98
198.8981,-53.96
198.9981,-53.58
199.0981,-53.39
199.1981,-52.83
199.2981,-51.6
199.3981,-51.51
199.4981,-51.23
199.5981,-52.26
199.6981,-52.45
199.7981,-52.45
199.8981,-53.02
199.9981,-52.64
200.0981,-52.45
200.1981,-51.32
200.2981,-52.45
200.3981,-53.86
200.4981,-52.07
200.5981,-52.17
200.6981,-52.45
200.7981,-51.32
200.8981,-51.23
200.9981,-51.89
201.0981,-52.92
201.1981,-53.11
201.2981,-53.02
201.3981,-51.6
201.4981,-51.89
201.5981,-52.26
201.6981,-52.36
201.7981,-50.76
201.8981,-51.23
201.9981,-53.11
202.0981,-52.07
202.1981,-53.3
202.2981,-52.45
202.3981,-51.32
202.4981,-50.94
202.5981,-52.36
202.6981,-51.89
202.7981,-52.36
202.8981,-52.92
202.9981,-53.2
203.0981,-52.73
203.1981,-53.2
203.2981,-53.2
203.3981,-52.36
203.4981,-52.73
203.5981,-52.73
203.6981,-51.89
203.7981,-53.77
203.8981,-52.73
203.9981,-51.89
204.0981,-52.45
204.1981,-52.36
204.2981,-51.7
204.3981,-51.89
204.4981,-52.17
204.5981,-51.89
204.6981,-51.23
204.7981,-52.07
204.8981,-52.07
204.9981,-50.66
205.0981,-51.32
205.1981,-51.42
205.2981,-51.79
205.3981,-51.51
205.4981,-52.45
205.5981,-52.36
205.6981,-51.42
205.7981,-51.51
205.8981,-54.05
205.9981,-53.77
206.0981,-54.43
206.1981,-54.99
206.2981,-54.8
206.3981,-53.39
206.4981,-52.83
206.5981,-52.73
206.6981,-53.39
206.7981,-51.98
206.8981,-52.07
206.9981,-52.07
207.0981,-52.54
207.1981,-52.36
207.2981,-51.89
207.3981,-50.76
207.4981,-50.47
207.5981,-50.94
207.6981,-53.02
207.7981,-52.36
207.8981,-50.94
207.9981,-50.0
208.0981,-48.97
208.1981,-49.91
208.2981,-50.47
208.3981,-51.51
208.4981,-50.47
208.5981,-51.7
208.6981,-52.26
208.7981,-52.73
208.8981,-52.45
208.9981,-52.45
209.0981,-52.83
209.1981,-53.49
209.2981,-53.96
209.3981,-54.24
209.4981,-53.96
209.5981,-52.26
209.6981,-52.36
209.7981,-52.26
209.8981,-52.83
209.9981,-51.7
210.0981,-50.47
210.1981,-49.72
210.2981,-49.44
210.3981,-49.91
210.4981,-50.29
210.5981,-50.76
210.6981,-51.42
210.7981,-51.42
210.8981,-51.23
210.9981,-50.19
211.0981,-49.63
211.1981,-50.76
211.2981,-50.1
211.3981,-49.72
211.4981,-50.66
211.5981,-51.79
211.6981,-51.89
211.7981,-51.89
211.8981,-52.83
211.9981,-54.62
212.0981,-54.62
212.1981,-54.24
212.2981,-56.5
212.3981,-54.33
212.4981,-55.09
212.5981,-55.56
212.6981,-53.77
212.7981,-53.96
212.8981,-53.3
212.9981,-51.51
213.0981,-51.6
213.1981,-51.04
213.2981,-51.04
213.3981,-49.72
213.4981,-50.29
213.5981,-51.42
213.6981,-52.17
213.7981,-50.0
213.8981,-50.66
213.9981,-51.04
214.0981,-50.76
214.1981,-52.07
214.2981,-50.94
214.3981,-49.34
214.4981,-49.82
214.5981,-52.17
214.6981,-54.71
214.7981,-53.58
214.8981,-55.09
214.9981,-53.58
215.0981,-52.73
215.1981,-53.39
215.2981,-53.49
215.3981,-53.86
215.4981,-54.62
215.5981,-53.58
215.6981,-50.94
215.7981,-51.7
215.8981,-51.51
215.9981,-51.89
216.0981,-52.07
216.1981,-51.42
216.2981,-51.6
216.3981,-50.85
216.4981,-50.38
216.5981,-51.23
216.6981,-51.6
216.7981,-51.04
216.8981,-50.85
216.9981,-51.6
217.0981,-51.42
217.1981,-51.6
217.2981,-52.64
217.3981,-52.64
217.4981,-54.43
217.5981,-54.71
217.6981,-52.64
217.7981,-53.11
217.8981,-53.58
217.9981,-53.02
218.0981,-53.2
218.1981,-53.3
218.2981,-54.14
218.3981,-53.2
218.4981,-52.54
218.5981,-52.54
218.6981,-53.11
218.7981,-52.45
218.8981,-52.45
218.9981,-51.13
219.0981,-50.66
219.1981,-50.94
219.2981,-51.51
219.3981,-50.85
219.4981,-52.83
219.5981,-53.77
219.6981,-52.45
219.7981,-51.32
219.8981,-51.79
219.9981,-51.32
220.0981,-51.23
220.1981,-52.83
220.2981,-53.77
220.3981,-55.46
220.4981,-53.77
220.5981,-52.73
220.6981,-53.77
220.7981,-52.83
220.8981,-52.54
220.9981,-52.26
221.0981,-51.04
221.1981,-52.54
221.2981,-52.26
221.3981,-51.6
221.4981,-50.94
221.5981,-51.04
221.6981,-51.32
221.7981,-51.51
221.8981,-51.79
221.9981,-50.47
222.0981,-52.17
222.1981,-51.6
222.2981,-51.04
222.3981,-50.94
222.4981,-50.85
222.5981,-51.7
222.6981,-51.04
222.7981,-51.79
222.8981,-53.67
222.9981,-54.05
223.0981,-53.49
223.1981,-52.45
223.2981,-53.96
223.3981,-53.49
223.4981,-53.11
223.5981,-54.33
223.6981,-53.3
223.7981,-51.42
223.8981,-50.66
223.9981,-51.04
224.0981,-51.7
224.1981,-51.79
224.2981,-52.26
224.3981,-52.17
224.4981,-51.32
224.5981,-51.04
224.6981,-49.91
224.7981,-49.53
224.8981,-52.26
224.9981,-52.64
225.0981,-51.7
225.1981,-51.51
225.2981,-51.42
225.3981,-51.13
225.4981,-51.32
225.5981,-52.64
225.6981,-54.52
225.7981,-54.24
225.8981,-54.62
225.9981,-55.37
226.0981,-54.52
226.1981,-53.96
226.2981,-53.96
226.3981,-54.24
226.4981,-53.39
226.5981,-53.67
226.6981,-54.05
226.7981,-53.96
226.8981,-54.33
226.9981,-52.45
227.0981,-50.66
227.1981,-50.94
227.2981,-50.0
227.3981,-50.47
227.4981,-50.76
227.5981,-50.94
227.6981,-51.04
227.7981,-49.91
227.8981,-49.53
227.9981,-51.6
228.0981,-51.79
228.1981,-50.85
228.2981,-53.86
228.3981,-52.64
228.4981,-50.57
228.5981,-51.42
228.6981,-51.89
228.7981,-52.83
228.8981,-54.43
228.9981,-55.18
229.0981,-55.65
229.1981,-54.8
229.2981,-52.73
229.3981,-52.64
229.4981,-53.86
229.5981,-52.54
229.6981,-52.17
229.7981,-51.79
229.8981,-51.89
229.9981,-51.42
230.0981,-52.64
230.1981,-52.36
230.2981,-52.36
230.3981,-51.23
230.4981,-51.13
230.5981,-50.76
230.6981,-50.19
230.7981,-51.7
230.8981,-51.32
230.9981,-50.76
231.0981,-51.23
231.1981,-51.32
231.2981,-52.26
231.3981,-51.23
231.4981,-51.7
231.5981,-52.54
231.6981,-52.73
231.7981,-53.86
231.8981,-53.77
231.9981,-54.14
232.0981,-54.71
232.1981,-54.52
232.2981,-55.09
232.3981,-53.86
232.4981,-53.86
232.5981,-53.77
232.6981,-52.54
232.7981,-51.6
232.8981,-52.92
232.9981,-51.7
233.0981,-50.66
233.1981,-51.23
233.2981,-51.04
