Frequency(MHz),Power(dBmV/100kHz)_20260203_093443
107.8981,-82.41
107.9981,-52.19
108.0981,-51.25
108.1981,-50.41
108.2981,-51.44
108.3981,-53.23
108.4981,-52.57
108.5981,-50.88
108.6981,-51.63
108.7981,-51.91
108.8981,-51.82
108.9981,-50.12
109.0981,-50.31
109.1981,-50.88
109.2981,-50.69
109.3981,-51.25
109.4981,-51.25
109.5981,-51.07
109.6981,-50.22
109.7981,-51.44
109.8981,-52.1
109.9981,-52.67
110.0981,-51.25
110.1981,-50.88
110.2981,-52.76
110.3981,-52.67
110.4981,-50.97
110.5981,-50.88
110.6981,-52.01
110.7981,-51.07
110.8981,-51.25
110.9981,-52.38
111.0981,-52.67
111.1981,-52.01
111.2981,-52.01
111.3981,-50.5
111.4981,-50.41
111.5981,-50.59
111.6981,-50.5
111.7981,-51.07
111.8981,-51.16
111.9981,-50.78
112.0981,-50.78
112.1981,-49.94
112.2981,-50.12
112.3981,-51.16
112.4981,-50.5
112.5981,-49.75
112.6981,-50.97
112.7981,-51.82
112.8981,-51.72
112.9981,-50.31
113.0981,-50.69
113.1981,-51.07
113.2981,-51.82
113.3981,-53.14
113.4981,-51.63
113.5981,-51.91
113.6981,-51.72
113.7981,-51.82
113.8981,-50.88
113.9981,-51.16
114.0981,-51.54
114.1981,-50.5
114.2981,-51.07
114.3981,-51.63
114.4981,-51.44
114.5981,-50.78
114.6981,-50.97
114.7981,-50.78
114.8981,-50.12
114.9981,-50.31
115.0981,-52.01
115.1981,-51.07
115.2981,-50.41
115.3981,-51.72
115.4981,-49.65
115.5981,-50.12
115.6981,-51.72
115.7981,-52.01
115.8981,-51.25
115.9981,-51.54
116.0981,-52.76
116.1981,-50.22
116.2981,-49.47
116.3981,-50.5
116.4981,-50.69
116.5981,-50.12
116.6981,-50.5
116.7981,-50.03
116.8981,-50.97
116.9981,-50.12
117.0981,-50.69
117.1981,-53.04
117.2981,-51.63
117.3981,-51.25
117.4981,-51.16
117.5981,-51.44
117.6981,-51.82
117.7981,-51.25
117.8981,-52.76
117.9981,-52.76
118.0981,-50.78
118.1981,-50.69
118.2981,-50.59
118.3981,-50.78
118.4981,-52.29
118.5981,-51.82
118.6981,-51.07
118.7981,-51.54
118.8981,-50.69
118.9981,-49.28
119.0981,-50.12
119.1981,-50.59
119.2981,-50.97
119.3981,-51.54
119.4981,-51.54
119.5981,-50.97
119.6981,-51.35
119.7981,-49.75
119.8981,-49.56
119.9981,-51.07
120.0981,-51.91
120.1981,-51.44
120.2981,-50.97
120.3981,-50.31
120.4981,-49.94
120.5981,-50.03
120.6981,-51.54
120.7981,-52.85
120.8981,-53.04
120.9981,-51.82
121.0981,-51.82
121.1981,-51.54
121.2981,-52.29
121.3981,-52.95
121.4981,-52.95
121.5981,-51.63
121.6981,-52.29
121.7981,-51.63
121.8981,-52.19
121.9981,-52.48
122.0981,-52.57
122.1981,-50.88
122.2981,-49.94
122.3981,-50.69
122.4981,-52.01
122.5981,-51.82
122.6981,-51.72
122.7981,-50.69
122.8981,-52.01
122.9981,-52.29
123.0981,-51.72
123.1981,-51.07
123.2981,-51.54
123.3981,-50.69
123.4981,-49.65
123.5981,-49.75
123.6981,-52.1
123.7981,-52.29
123.8981,-51.54
123.9981,-51.16
124.0981,-51.25
124.1981,-53.98
124.2981,-53.32
124.3981,-51.82
124.4981,-50.97
124.5981,-51.63
124.6981,-51.82
124.7981,-52.19
124.8981,-51.63
124.9981,-51.07
125.0981,-51.82
125.1981,-52.01
125.2981,-51.25
125.3981,-50.69
125.4981,-50.97
125.5981,-51.16
125.6981,-50.5
125.7981,-51.16
125.8981,-50.88
125.9981,-50.69
126.0981,-50.59
126.1981,-50.88
126.2981,-50.5
126.3981,-51.25
126.4981,-50.88
126.5981,-50.59
126.6981,-51.72
126.7981,-51.91
126.8981,-51.82
126.9981,-51.63
127.0981,-53.04
127.1981,-53.61
127.2981,-52.48
127.3981,-50.78
127.4981,-51.72
127.5981,-52.29
127.6981,-51.44
127.7981,-51.72
127.8981,-52.19
127.9981,-51.63
128.0981,-50.78
128.1981,-50.5
128.2981,-50.22
128.3981,-50.31
128.4981,-50.5
128.5981,-51.35
128.6981,-50.97
128.7981,-50.31
128.8981,-51.16
128.9981,-52.1
129.0981,-51.91
129.1981,-51.16
129.2981,-51.63
129.3981,-51.91
129.4981,-50.69
129.5981,-50.59
129.6981,-51.44
129.7981,-50.59
129.8981,-51.25
129.9981,-51.25
130.0981,-49.56
130.1981,-49.09
130.2981,-49.94
130.3981,-51.44
130.4981,-50.78
130.5981,-51.16
130.6981,-50.88
130.7981,-50.31
130.8981,-51.91
130.9981,-51.54
131.0981,-51.82
131.1981,-52.48
131.2981,-52.01
131.3981,-51.16
131.4981,-52.38
131.5981,-52.76
131.6981,-52.29
131.7981,-52.19
131.8981,-52.67
131.9981,-53.98
132.0981,-53.42
132.1981,-51.91
132.2981,-50.41
132.3981,-50.12
132.4981,-51.82
132.5981,-52.85
132.6981,-52.38
132.7981,-51.54
132.8981,-51.54
132.9981,-51.91
133.0981,-51.07
133.1981,-49.65
133.2981,-49.56
133.3981,-50.69
133.4981,-51.07
133.5981,-52.19
133.6981,-51.91
133.7981,-52.19
133.8981,-52.1
133.9981,-52.1
134.0981,-51.82
134.1981,-51.63
134.2981,-52.29
134.3981,-50.97
134.4981,-50.97
134.5981,-52.85
134.6981,-51.82
134.7981,-51.44
134.8981,-51.91
134.9981,-53.51
135.0981,-51.72
135.1981,-50.41
135.2981,-50.22
135.3981,-51.07
135.4981,-51.91
135.5981,-51.25
135.6981,-51.82
135.7981,-53.7
135.8981,-53.14
135.9981,-52.57
136.0981,-53.51
136.1981,-51.91
136.2981,-51.25
136.3981,-51.82
136.4981,-51.16
136.5981,-51.82
136.6981,-52.01
136.7981,-53.23
136.8981,-51.63
136.9981,-50.88
137.0981,-51.72
137.1981,-52.38
137.2981,-52.48
137.3981,-52.57
137.4981,-52.01
137.5981,-52.76
137.6981,-52.48
137.7981,-51.72
137.8981,-51.44
137.9981,-51.82
138.0981,-51.54
138.1981,-51.16
138.2981,-50.97
138.3981,-53.61
138.4981,-53.32
138.5981,-51.63
138.6981,-51.72
138.7981,-51.91
138.8981,-51.82
138.9981,-50.22
139.0981,-50.41
139.1981,-53.14
139.2981,-52.29
139.3981,-51.54
139.4981,-52.85
139.5981,-52.48
139.6981,-52.48
139.7981,-52.76
139.8981,-51.82
139.9981,-50.78
140.0981,-50.69
140.1981,-51.82
140.2981,-52.38
140.3981,-50.03
140.4981,-49.84
140.5981,-50.5
140.6981,-51.54
140.7981,-51.91
140.8981,-51.54
140.9981,-52.01
141.0981,-52.48
141.1981,-51.54
141.2981,-51.91
141.3981,-52.57
141.4981,-53.23
141.5981,-52.48
141.6981,-51.91
141.7981,-51.82
141.8981,-50.5
141.9981,-49.47
142.0981,-49.84
142.1981,-50.78
142.2981,-51.72
142.3981,-51.82
142.4981,-51.16
142.5981,-51.63
142.6981,-52.19
142.7981,-53.04
142.8981,-51.91
142.9981,-51.54
143.0981,-52.29
143.1981,-52.38
143.2981,-51.82
143.3981,-50.59
143.4981,-51.25
143.5981,-51.63
143.6981,-50.88
143.7981,-51.63
143.8981,-53.14
143.9981,-52.48
144.0981,-51.63
144.1981,-52.57
144.2981,-53.23
144.3981,-53.98
144.4981,-51.91
144.5981,-53.04
144.6981,-50.31
144.7981,-50.78
144.8981,-52.67
144.9981,-52.1
145.0981,-51.16
145.1981,-52.57
145.2981,-53.42
145.3981,-53.23
145.4981,-52.48
145.5981,-52.19
145.6981,-52.57
145.7981,-53.89
145.8981,-52.1
145.9981,-50.12
146.0981,-51.63
146.1981,-52.76
146.2981,-52.95
146.3981,-53.04
146.4981,-52.29
146.5981,-52.38
146.6981,-52.01
146.7981,-53.14
146.8981,-53.98
146.9981,-53.7
147.0981,-52.29
147.1981,-51.35
147.2981,-51.35
147.3981,-52.38
147.4981,-51.07
147.5981,-52.19
147.6981,-50.59
147.7981,-50.88
147.8981,-51.16
147.9981,-52.85
148.0981,-52.57
148.1981,-52.48
148.2981,-52.38
148.3981,-51.91
148.4981,-52.85
148.5981,-52.29
148.6981,-52.48
148.7981,-52.85
148.8981,-52.57
148.9981,-51.91
149.0981,-51.35
149.1981,-50.97
149.2981,-51.25
149.3981,-52.1
149.4981,-52.67
149.5981,-52.01
149.6981,-51.44
149.7981,-52.1
149.8981,-52.57
149.9981,-51.07
150.0981,-50.59
150.1981,-49.94
150.2981,-49.18
150.3981,-51.63
150.4981,-52.1
150.5981,-52.57
150.6981,-51.91
150.7981,-52.19
150.8981,-51.54
150.9981,-51.63
151.0981,-52.19
151.1981,-52.48
151.2981,-52.67
151.3981,-51.82
151.4981,-52.01
151.5981,-52.95
151.6981,-53.51
151.7981,-52.95
151.8981,-52.76
151.9981,-52.76
152.0981,-51.91
152.1981,-52.57
152.2981,-52.1
152.3981,-51.35
152.4981,-50.69
152.5981,-50.31
152.6981,-51.44
152.7981,-51.54
152.8981,-51.72
152.9981,-51.25
153.0981,-51.16
153.1981,-50.59
153.2981,-52.01
153.3981,-52.19
153.4981,-51.54
153.5981,-52.29
153.6981,-52.48
153.7981,-50.97
153.8981,-51.07
153.9981,-51.35
154.0981,-51.07
154.1981,-51.72
154.2981,-52.57
154.3981,-52.67
154.4981,-52.38
154.5981,-50.69
154.6981,-51.44
154.7981,-51.54
154.8981,-52.1
154.9981,-51.35
155.0981,-51.91
155.1981,-52.19
155.2981,-53.42
155.3981,-53.51
155.4981,-52.67
155.5981,-52.48
155.6981,-52.38
155.7981,-51.63
155.8981,-51.07
155.9981,-52.38
156.0981,-53.42
156.1981,-52.19
156.2981,-51.44
156.3981,-51.82
156.4981,-51.35
156.5981,-50.22
156.6981,-50.12
156.7981,-52.85
156.8981,-53.23
156.9981,-52.76
157.0981,-52.29
157.1981,-52.19
157.2981,-53.23
157.3981,-54.17
157.4981,-53.32
157.5981,-51.07
157.6981,-50.88
157.7981,-50.69
157.8981,-49.65
157.9981,-50.97
158.0981,-52.76
158.1981,-52.19
158.2981,-52.01
158.3981,-52.85
158.4981,-51.54
158.5981,-51.07
158.6981,-52.67
158.7981,-53.14
158.8981,-52.76
158.9981,-52.01
159.0981,-51.91
159.1981,-52.1
159.2981,-52.1
159.3981,-51.72
159.4981,-51.63
159.5981,-51.63
159.6981,-51.63
159.7981,-51.25
159.8981,-52.57
159.9981,-52.85
160.0981,-52.95
160.1981,-53.04
160.2981,-51.72
160.3981,-51.82
160.4981,-50.97
160.5981,-50.97
160.6981,-51.72
160.7981,-52.01
160.8981,-50.69
160.9981,-50.97
161.0981,-53.04
161.1981,-53.14
161.2981,-51.72
161.3981,-52.01
161.4981,-53.14
161.5981,-52.57
161.6981,-51.82
161.7981,-51.72
161.8981,-52.67
161.9981,-53.89
162.0981,-53.51
162.1981,-52.57
162.2981,-51.35
162.3981,-52.01
162.4981,-52.29
162.5981,-52.85
162.6981,-53.04
162.7981,-52.1
162.8981,-51.63
162.9981,-50.22
163.0981,-50.78
163.1981,-52.29
163.2981,-51.54
163.3981,-51.63
163.4981,-52.29
163.5981,-53.51
163.6981,-51.63
163.7981,-50.97
163.8981,-51.35
163.9981,-50.78
164.0981,-50.5
164.1981,-52.01
164.2981,-52.19
164.3981,-52.01
164.4981,-51.54
164.5981,-50.59
164.6981,-51.54
164.7981,-52.1
164.8981,-52.19
164.9981,-52.1
165.0981,-53.79
165.1981,-53.7
165.2981,-52.19
165.3981,-53.61
165.4981,-53.98
165.5981,-53.89
165.6981,-54.17
165.7981,-53.7
165.8981,-53.23
165.9981,-52.95
166.0981,-53.32
166.1981,-51.63
166.2981,-50.88
166.3981,-52.38
166.4981,-52.57
166.5981,-52.85
166.6981,-52.67
166.7981,-52.19
166.8981,-51.35
166.9981,-52.19
167.0981,-52.01
167.1981,-52.38
167.2981,-50.59
167.3981,-50.97
167.4981,-52.1
167.5981,-51.82
167.6981,-51.25
167.7981,-50.78
167.8981,-50.97
167.9981,-51.72
168.0981,-53.14
168.1981,-53.04
168.2981,-51.63
168.3981,-51.54
168.4981,-52.67
168.5981,-51.72
168.6981,-52.76
168.7981,-52.57
168.8981,-51.35
168.9981,-52.1
169.0981,-52.85
169.1981,-51.63
169.2981,-52.76
169.3981,-53.42
169.4981,-52.57
169.5981,-51.91
169.6981,-52.19
169.7981,-54.64
169.8981,-52.38
169.9981,-52.85
170.0981,-53.32
170.1981,-52.57
170.2981,-53.7
170.3981,-51.72
170.4981,-51.82
170.5981,-52.19
170.6981,-51.16
170.7981,-51.44
170.8981,-52.01
170.9981,-51.25
171.0981,-51.16
171.1981,-50.78
171.2981,-52.1
171.3981,-51.91
171.4981,-51.91
171.5981,-54.17
171.6981,-53.42
171.7981,-53.14
171.8981,-52.1
171.9981,-52.67
172.0981,-52.76
172.1981,-52.76
172.2981,-51.54
172.3981,-51.35
172.4981,-52.57
172.5981,-52.57
172.6981,-51.82
172.7981,-52.01
172.8981,-51.91
172.9981,-51.63
173.0981,-53.04
173.1981,-52.85
173.2981,-52.95
173.3981,-53.61
173.4981,-52.1
173.5981,-51.44
173.6981,-53.04
173.7981,-53.04
173.8981,-52.85
173.9981,-53.42
174.0981,-53.79
174.1981,-52.85
174.2981,-51.63
174.3981,-53.04
174.4981,-52.57
174.5981,-53.04
174.6981,-53.51
174.7981,-52.48
174.8981,-52.57
174.9981,-52.29
175.0981,-51.54
175.1981,-52.01
175.2981,-52.1
175.3981,-51.35
175.4981,-52.57
175.5981,-54.55
175.6981,-52.48
175.7981,-52.1
175.8981,-53.7
175.9981,-54.08
176.0981,-52.48
176.1981,-51.16
176.2981,-51.91
176.3981,-53.32
176.4981,-53.79
176.5981,-53.51
176.6981,-51.54
176.7981,-51.35
176.8981,-52.01
176.9981,-53.23
177.0981,-53.42
177.1981,-52.67
177.2981,-51.44
177.3981,-51.91
177.4981,-52.1
177.5981,-52.95
177.6981,-52.67
177.7981,-51.91
177.8981,-52.01
177.9981,-52.95
178.0981,-53.51
178.1981,-53.98
178.2981,-54.36
178.3981,-52.29
178.4981,-53.42
178.5981,-54.08
178.6981,-53.98
178.7981,-53.51
178.8981,-53.04
178.9981,-52.95
179.0981,-53.14
179.1981,-52.01
179.2981,-52.01
179.3981,-53.32
179.4981,-53.04
179.5981,-52.19
179.6981,-52.57
179.7981,-52.38
179.8981,-52.67
179.9981,-52.85
180.0981,-51.07
180.1981,-51.82
180.2981,-51.16
180.3981,-51.63
180.4981,-51.54
180.5981,-51.72
180.6981,-51.54
180.7981,-52.85
180.8981,-51.72
180.9981,-52.38
181.0981,-52.48
181.1981,-51.91
181.2981,-51.44
181.3981,-51.16
181.4981,-52.01
181.5981,-53.04
181.6981,-52.95
181.7981,-52.19
181.8981,-52.38
181.9981,-52.48
182.0981,-52.85
182.1981,-53.89
182.2981,-53.98
182.3981,-52.85
182.4981,-53.04
182.5981,-52.57
182.6981,-52.57
182.7981,-53.04
182.8981,-53.7
182.9981,-54.92
183.0981,-53.23
183.1981,-52.95
183.2981,-52.57
183.3981,-52.19
183.4981,-52.85
183.5981,-52.29
183.6981,-53.04
183.7981,-52.85
183.8981,-51.63
183.9981,-51.91
184.0981,-53.32
184.1981,-52.95
184.2981,-53.14
184.3981,-52.38
184.4981,-52.19
184.5981,-52.67
184.6981,-54.08
184.7981,-53.23
184.8981,-52.01
184.9981,-52.57
185.0981,-51.91
185.1981,-52.57
185.2981,-52.67
185.3981,-53.14
185.4981,-53.23
185.5981,-53.7
185.6981,-53.32
185.7981,-52.29
185.8981,-51.82
185.9981,-54.64
186.0981,-55.39
186.1981,-53.23
186.2981,-53.89
186.3981,-53.61
186.4981,-52.57
186.5981,-52.76
186.6981,-52.38
186.7981,-52.1
186.8981,-52.01
186.9981,-52.48
187.0981,-52.19
187.1981,-52.19
187.2981,-52.76
187.3981,-52.1
187.4981,-51.44
187.5981,-52.48
187.6981,-53.98
187.7981,-52.57
187.8981,-52.38
187.9981,-52.95
188.0981,-52.95
188.1981,-52.01
188.2981,-51.54
188.3981,-51.91
188.4981,-53.14
188.5981,-52.19
188.6981,-51.91
188.7981,-52.38
188.8981,-52.67
188.9981,-52.1
189.0981,-52.19
189.1981,-52.38
189.2981,-53.32
189.3981,-53.51
189.4981,-53.79
189.5981,-52.95
189.6981,-52.29
189.7981,-52.95
189.8981,-53.61
189.9981,-52.57
190.0981,-51.82
190.1981,-52.57
190.2981,-53.14
190.3981,-53.23
190.4981,-52.48
190.5981,-52.85
190.6981,-54.27
190.7981,-53.51
190.8981,-53.04
190.9981,-52.67
191.0981,-52.38
191.1981,-53.42
191.2981,-53.98
191.3981,-52.95
191.4981,-53.79
191.5981,-53.79
191.6981,-53.7
191.7981,-53.42
191.8981,-52.76
191.9981,-51.72
192.0981,-50.78
192.1981,-52.38
192.2981,-54.45
192.3981,-54.55
192.4981,-53.79
192.5981,-52.1
192.6981,-52.95
192.7981,-55.11
192.8981,-54.17
192.9981,-54.92
193.0981,-53.79
193.1981,-52.95
193.2981,-52.38
193.3981,-51.91
193.4981,-52.95
193.5981,-52.1
193.6981,-51.82
193.7981,-52.29
193.8981,-52.76
193.9981,-54.83
194.0981,-54.64
194.1981,-53.04
194.2981,-53.51
194.3981,-54.55
194.4981,-55.39
194.5981,-53.23
194.6981,-52.57
194.7981,-52.67
194.8981,-53.42
194.9981,-53.61
195.0981,-54.45
195.1981,-53.23
195.2981,-53.89
195.3981,-54.64
195.4981,-52.76
195.5981,-52.29
195.6981,-53.89
195.7981,-54.08
195.8981,-52.67
195.9981,-52.01
196.0981,-53.32
196.1981,-53.32
196.2981,-53.14
196.3981,-53.51
196.4981,-52.38
196.5981,-52.29
196.6981,-53.04
196.7981,-53.98
196.8981,-53.04
196.9981,-53.14
197.0981,-52.57
197.1981,-51.72
197.2981,-51.63
197.3981,-53.32
197.4981,-52.85
197.5981,-53.14
197.6981,-52.95
197.7981,-52.95
197.8981,-52.57
197.9981,-53.04
198.0981,-53.98
198.1981,-53.98
198.2981,-53.23
198.3981,-54.27
198.4981,-53.14
198.5981,-54.64
198.6981,-54.17
198.7981,-53.04
198.8981,-52.85
198.9981,-53.61
199.0981,-53.98
199.1981,-53.61
199.2981,-54.83
199.3981,-54.64
199.4981,-52.57
199.5981,-53.04
199.6981,-54.55
199.7981,-55.11
199.8981,-54.17
199.9981,-52.38
200.0981,-53.42
200.1981,-54.36
200.2981,-53.42
200.3981,-54.36
200.4981,-53.51
200.5981,-53.7
200.6981,-54.83
200.7981,-52.67
200.8981,-51.63
200.9981,-53.23
201.0981,-53.51
201.1981,-53.14
201.2981,-53.61
201.3981,-53.32
201.4981,-53.61
201.5981,-53.14
201.6981,-52.19
201.7981,-52.38
201.8981,-52.48
201.9981,-53.32
202.0981,-53.42
202.1981,-54.45
202.2981,-54.36
202.3981,-54.64
202.4981,-53.42
202.5981,-53.51
202.6981,-53.79
202.7981,-53.04
202.8981,-53.14
202.9981,-52.76
203.0981,-51.91
203.1981,-53.42
203.2981,-53.89
203.3981,-53.42
203.4981,-52.1
203.5981,-52.48
203.6981,-52.85
203.7981,-53.04
203.8981,-53.79
203.9981,-53.61
204.0981,-53.04
204.1981,-54.36
204.2981,-52.38
204.3981,-51.54
204.4981,-51.82
204.5981,-52.85
204.6981,-53.14
204.7981,-52.85
204.8981,-53.32
204.9981,-52.85
205.0981,-54.36
205.1981,-53.98
205.2981,-53.23
205.3981,-53.98
205.4981,-51.91
205.5981,-52.19
205.6981,-53.51
205.7981,-52.1
205.8981,-51.82
205.9981,-53.14
206.0981,-53.89
206.1981,-54.36
206.2981,-52.85
206.3981,-53.14
206.4981,-53.04
206.5981,-52.95
206.6981,-52.01
206.7981,-52.38
206.8981,-53.14
206.9981,-53.51
207.0981,-52.67
207.1981,-52.85
207.2981,-52.38
207.3981,-53.32
207.4981,-54.27
207.5981,-52.95
207.6981,-53.32
207.7981,-52.67
207.8981,-53.14
207.9981,-54.27
208.0981,-54.27
208.1981,-54.92
208.2981,-53.79
208.3981,-52.01
208.4981,-52.76
208.5981,-52.67
208.6981,-53.23
208.7981,-53.51
208.8981,-52.67
208.9981,-54.17
209.0981,-53.32
209.1981,-52.19
209.2981,-52.19
209.3981,-53.89
209.4981,-54.64
209.5981,-53.04
209.6981,-52.85
209.7981,-54.08
209.8981,-55.3
209.9981,-54.92
210.0981,-53.23
210.1981,-51.91
210.2981,-52.95
210.3981,-51.16
210.4981,-50.97
210.5981,-51.54
210.6981,-52.76
210.7981,-53.42
210.8981,-53.32
210.9981,-53.04
211.0981,-52.1
211.1981,-52.76
211.2981,-53.23
211.3981,-52.95
211.4981,-53.79
211.5981,-53.14
211.6981,-52.95
211.7981,-54.64
211.8981,-53.42
211.9981,-51.91
212.0981,-53.51
212.1981,-53.04
212.2981,-52.76
212.3981,-53.14
212.4981,-54.74
212.5981,-53.14
212.6981,-52.95
212.7981,-52.67
212.8981,-52.38
212.9981,-52.48
213.0981,-52.76
213.1981,-51.25
213.2981,-52.85
213.3981,-54.08
213.4981,-53.7
213.5981,-53.14
213.6981,-52.29
213.7981,-52.67
213.8981,-52.85
213.9981,-52.29
214.0981,-53.32
214.1981,-53.61
214.2981,-52.85
214.3981,-53.14
214.4981,-53.79
214.5981,-53.61
214.6981,-54.08
214.7981,-53.7
214.8981,-53.79
214.9981,-53.32
215.0981,-53.7
215.1981,-52.57
215.2981,-53.04
215.3981,-54.08
215.4981,-53.51
215.5981,-53.23
215.6981,-53.04
215.7981,-52.85
215.8981,-53.14
215.9981,-53.79
216.0981,-52.76
216.1981,-52.48
216.2981,-52.67
216.3981,-53.04
216.4981,-54.74
216.5981,-54.64
216.6981,-54.55
216.7981,-53.98
216.8981,-54.17
216.9981,-53.42
217.0981,-54.45
217.1981,-55.96
217.2981,-53.61
217.3981,-54.17
217.4981,-53.32
217.5981,-52.76
217.6981,-53.04
217.7981,-52.85
217.8981,-53.23
217.9981,-52.38
218.0981,-52.95
218.1981,-53.32
218.2981,-54.55
218.3981,-53.51
218.4981,-53.42
218.5981,-52.85
218.6981,-53.32
218.7981,-52.48
218.8981,-53.04
218.9981,-52.38
219.0981,-51.82
219.1981,-52.19
219.2981,-53.23
219.3981,-55.02
219.4981,-55.3
219.5981,-54.74
219.6981,-54.83
219.7981,-54.08
219.8981,-53.51
219.9981,-53.89
220.0981,-53.32
220.1981,-53.51
220.2981,-54.92
220.3981,-53.32
220.4981,-52.76
220.5981,-52.1
220.6981,-54.36
220.7981,-54.83
220.8981,-53.42
220.9981,-53.23
221.0981,-53.42
221.1981,-54.08
221.2981,-55.02
221.3981,-53.79
221.4981,-52.95
221.5981,-52.57
221.6981,-54.27
221.7981,-54.36
221.8981,-54.83
221.9981,-54.27
222.0981,-53.14
222.1981,-53.04
222.2981,-53.61
222.3981,-54.92
222.4981,-54.64
222.5981,-54.17
222.6981,-53.04
222.7981,-53.14
222.8981,-52.19
222.9981,-54.27
223.0981,-55.39
223.1981,-55.87
223.2981,-54.08
223.3981,-53.89
223.4981,-52.67
223.5981,-52.67
223.6981,-52.29
223.7981,-53.61
223.8981,-52.76
223.9981,-53.04
224.0981,-52.95
224.1981,-52.38
224.2981,-53.04
224.3981,-54.92
224.4981,-53.14
224.5981,-54.55
224.6981,-53.89
224.7981,-53.23
224.8981,-53.98
224.9981,-53.89
225.0981,-54.08
225.1981,-53.89
225.2981,-53.04
225.3981,-52.85
225.4981,-53.51
225.5981,-53.98
225.6981,-53.14
225.7981,-53.61
225.8981,-55.21
225.9981,-55.58
226.0981,-53.51
226.1981,-54.17
226.2981,-53.7
226.3981,-52.57
226.4981,-52.67
226.5981,-53.89
226.6981,-52.76
226.7981,-51.82
226.8981,-53.32
226.9981,-54.45
227.0981,-53.14
227.1981,-52.48
227.2981,-52.57
227.3981,-52.57
227.4981,-53.79
227.5981,-53.7
227.6981,-53.7
227.7981,-52.76
227.8981,-53.23
227.9981,-53.79
228.0981,-52.38
228.1981,-52.76
228.2981,-53.23
228.3981,-52.38
228.4981,-53.04
228.5981,-53.32
228.6981,-52.1
228.7981,-52.95
228.8981,-54.17
228.9981,-53.32
229.0981,-53.7
229.1981,-53.42
229.2981,-52.67
229.3981,-54.27
229.4981,-53.42
229.5981,-54.27
229.6981,-53.23
229.7981,-53.32
229.8981,-54.36
229.9981,-54.17
230.0981,-54.64
230.1981,-53.32
230.2981,-52.76
230.3981,-54.55
230.4981,-54.55
230.5981,-53.23
230.6981,-53.61
230.7981,-54.64
230.8981,-53.79
230.9981,-53.61
231.0981,-53.51
231.1981,-53.32
231.2981,-53.79
231.3981,-53.61
231.4981,-53.42
231.5981,-53.51
231.6981,-54.27
231.7981,-54.36
231.8981,-54.17
231.9981,-53.89
232.0981,-53.42
232.1981,-52.48
232.2981,-53.51
232.3981,-53.32
232.4981,-52.67
232.5981,-52.85
232.6981,-52.19
232.7981,-53.23
232.8981,-54.55
